# Fe photoionisation cross section - reduced to   107points
# From the Leiden database for photodissociation and photoionization of astrophysically relevant molecules, http://home.strw.leidenuniv.nl/~ewine/photo/                                                                                                                                                                                                                                                                                                                                                            
# File last modified by Alan Heays 2017-03-01                                                                                                                                                                                                                                                                                                                                                                                                                                                                       
# references: reed2009 http://stacks.iop.org/0004-637X/693/i=1/a=940, hansen1977 http://stacks.iop.org/0022-3700/10/i=1/a=011, bautista1995, tondello1975, lombardi1978 10.1103/PhysRevA.18.2131, verner1996 10.1086/177435,                                                                                                                                                                                                                                                                                        
# no info on lines                                                                                                                                                                                                                                                                                                                                                                                                                                                                                                  
# wavelength: (nm)                                                                                                                                                                                                                                                                                                                                                                                                                                                                                                  
# photoabsorption:    cross section (cm2)                                                                                                                                                                                                                                                                                                                                                                                                                                                                           
# photoionisation: Photoionisation cross section (cm2)                                                                                                                                                                                                                                                                                                                                                                                                                                                              
# This version has been resampled to a uniform 0.1nm grid while maintaining a constant integrated cross section (using trapezoidal integration).                                                                                                                                                                                                                                                                                                                                                                    
# wavelength photoabsorption photoionisation                                                                                                                                                                                                                                                                                                                                                                                                                                                                        
2.001342E+01 7.048746E-18 7.048746E-18
2.131342E+01 6.828191E-18 6.828191E-18
2.261342E+01 6.625562E-18 6.625562E-18
2.391342E+01 6.440047E-18 6.440047E-18
2.521342E+01 6.263810E-18 6.263810E-18
2.651342E+01 6.101483E-18 6.101483E-18
2.781342E+01 5.951121E-18 5.951121E-18
2.911342E+01 5.806634E-18 5.806634E-18
3.041342E+01 5.669805E-18 5.669805E-18
3.171342E+01 5.541887E-18 5.541887E-18
3.301342E+01 5.419593E-18 5.419593E-18
3.431342E+01 5.303810E-18 5.303810E-18
3.561342E+01 5.193510E-18 5.193510E-18
3.691342E+01 5.088231E-18 5.088231E-18
3.821342E+01 4.987562E-18 4.987562E-18
3.951342E+01 4.891131E-18 4.891131E-18
4.081342E+01 4.798617E-18 4.798617E-18
4.211342E+01 4.709729E-18 4.709729E-18
4.341342E+01 4.624203E-18 4.624203E-18
4.471342E+01 4.541803E-18 4.541803E-18
4.601342E+01 4.462320E-18 4.462320E-18
4.731342E+01 4.385553E-18 4.385553E-18
4.861342E+01 4.311336E-18 4.311336E-18
4.991342E+01 4.239513E-18 4.239513E-18
5.121342E+01 4.169920E-18 4.169920E-18
5.251342E+01 4.102440E-18 4.102440E-18
5.381342E+01 4.036950E-18 4.036950E-18
5.511342E+01 3.973323E-18 3.973323E-18
5.641342E+01 3.911475E-18 3.911475E-18
5.771342E+01 3.851297E-18 3.851297E-18
5.901342E+01 3.792704E-18 3.792704E-18
6.031342E+01 3.735624E-18 3.735624E-18
6.161342E+01 3.679966E-18 3.679966E-18
6.291342E+01 3.625666E-18 3.625666E-18
6.421342E+01 3.572666E-18 3.572666E-18
6.551342E+01 3.520905E-18 3.520905E-18
6.681342E+01 3.470322E-18 3.470322E-18
6.811342E+01 3.420852E-18 3.420852E-18
6.941342E+01 3.372482E-18 3.372482E-18
7.071342E+01 3.325133E-18 3.325133E-18
7.201342E+01 3.278773E-18 3.278773E-18
7.331342E+01 3.233368E-18 3.233368E-18
7.461342E+01 3.188883E-18 3.188883E-18
7.591342E+01 3.145283E-18 3.145283E-18
7.721342E+01 3.102533E-18 3.102533E-18
7.851342E+01 3.060593E-18 3.060593E-18
7.981342E+01 3.019466E-18 3.019466E-18
8.111342E+01 2.316634E-18 2.316634E-18
8.241342E+01 2.410801E-18 2.410801E-18
8.371342E+01 2.168640E-18 2.168640E-18
8.501342E+01 1.834193E-18 1.834193E-18
8.631342E+01 2.103960E-18 2.103960E-18
8.761342E+01 2.476062E-18 2.476062E-18
8.891342E+01 2.046096E-18 2.046096E-18
9.021342E+01 2.223232E-18 2.223232E-18
9.151342E+01 3.053264E-18 3.053264E-18
9.281342E+01 1.908194E-18 1.908194E-18
9.411342E+01 2.761356E-18 2.761356E-18
9.541342E+01 1.886688E-18 1.886688E-18
9.671342E+01 3.510200E-18 3.510200E-18
9.801342E+01 1.904148E-18 1.904148E-18
9.931342E+01 1.810197E-18 1.810197E-18
1.006134E+02 1.610785E-18 1.610785E-18
1.019134E+02 1.744108E-18 1.744108E-18
1.032134E+02 1.572688E-18 1.572688E-18
1.045134E+02 1.530351E-18 1.530351E-18
1.058134E+02 2.026679E-18 2.026679E-18
1.071134E+02 2.257706E-18 2.257706E-18
1.084134E+02 2.724503E-18 2.724503E-18
1.097134E+02 3.409046E-18 3.409046E-18
1.110134E+02 2.873263E-18 2.873263E-18
1.123134E+02 2.337479E-18 2.337479E-18
1.136134E+02 2.285130E-18 2.285130E-18
1.149134E+02 2.795976E-18 2.795976E-18
1.162134E+02 2.587062E-18 2.587062E-18
1.175134E+02 1.961914E-18 1.961914E-18
1.188134E+02 2.216891E-18 2.216891E-18
1.201134E+02 2.579911E-18 2.579911E-18
1.214134E+02 3.400865E-18 3.400865E-18
1.227134E+02 2.777320E-18 2.777320E-18
1.240134E+02 2.821601E-18 2.821601E-18
1.253134E+02 3.410097E-18 3.410097E-18
1.266134E+02 5.369428E-18 5.369428E-18
1.279134E+02 8.578116E-18 8.578116E-18
1.292134E+02 5.921899E-18 5.921899E-18
1.305134E+02 3.713275E-18 3.713275E-18
1.318134E+02 8.857795E-18 8.857795E-18
1.331134E+02 9.486902E-18 9.486902E-18
1.344134E+02 2.847625E-18 2.847625E-18
1.357134E+02 3.710332E-18 3.710332E-18
1.370134E+02 3.832299E-17 3.832299E-17
1.383134E+02 1.098290E-17 1.098290E-17
1.396134E+02 4.294788E-18 4.294788E-18
1.409134E+02 2.498458E-18 2.498458E-18
1.422134E+02 2.434722E-18 2.434722E-18
1.435134E+02 4.341062E-19 4.341062E-19
1.448134E+02 3.580294E-19 3.580294E-19
1.461134E+02 5.487298E-19 5.487298E-19
1.474134E+02 7.227938E-19 7.227938E-19
1.487134E+02 6.090369E-19 6.090369E-19
1.500134E+02 6.409281E-19 6.409281E-19
1.513134E+02 7.714928E-19 7.714928E-19
1.526134E+02 3.437644E-18 3.437644E-18
1.539134E+02 8.067281E-18 8.067281E-18
1.552134E+02 1.379849E-17 1.379849E-17
1.565134E+02 2.723497E-18 2.723497E-18
1.578134E+02 9.634052E-19 9.634052E-19
