# Cross sections for H2+
# From the Leiden database for photodissociation and photoionization of astrophysically relevant molecules, http://home.strw.leidenuniv.nl/~ewine/photo/
# Converted from earlier Leiden database cross sections by Alan Heays 2016-02-24
# Photodissociation source: H2+ PHOTODISSOCIATION, V=0 THEORY
# Lines represented with gaussian of width 1.0 nm FWHM
# wavelength: (nm)
# photoabsorption:    cross section (cm2)
# photodissociation:  cross section (cm2)
# This version has been resampled to a uniform 0.1nm grid while maintaining a constant integrated cross section (using trapezoidal integration).
# wavelength photoabsorption photodissociation
9.000000e+01 3.080000e-18 3.080000e-18
9.010000e+01 3.109600e-18 3.109600e-18
9.020000e+01 3.139200e-18 3.139200e-18
9.030000e+01 3.168800e-18 3.168800e-18
9.040000e+01 3.198400e-18 3.198400e-18
9.050000e+01 3.228000e-18 3.228000e-18
9.060000e+01 3.257600e-18 3.257600e-18
9.070000e+01 3.287200e-18 3.287200e-18
9.080000e+01 3.316800e-18 3.316800e-18
9.090000e+01 3.346400e-18 3.346400e-18
9.100000e+01 3.376000e-18 3.376000e-18
9.110000e+01 3.405600e-18 3.405600e-18
9.120000e+01 3.435200e-18 3.435200e-18
9.130000e+01 3.464800e-18 3.464800e-18
9.140000e+01 3.494400e-18 3.494400e-18
9.150000e+01 3.524000e-18 3.524000e-18
9.160000e+01 3.553600e-18 3.553600e-18
9.170000e+01 3.583200e-18 3.583200e-18
9.180000e+01 3.612800e-18 3.612800e-18
9.190000e+01 3.642400e-18 3.642400e-18
9.200000e+01 3.672000e-18 3.672000e-18
9.210000e+01 3.701600e-18 3.701600e-18
9.220000e+01 3.731200e-18 3.731200e-18
9.230000e+01 3.760800e-18 3.760800e-18
9.240000e+01 3.790400e-18 3.790400e-18
9.250000e+01 3.820000e-18 3.820000e-18
9.260000e+01 3.851600e-18 3.851600e-18
9.270000e+01 3.883200e-18 3.883200e-18
9.280000e+01 3.914800e-18 3.914800e-18
9.290000e+01 3.946400e-18 3.946400e-18
9.300000e+01 3.978000e-18 3.978000e-18
9.310000e+01 4.009600e-18 4.009600e-18
9.320000e+01 4.041200e-18 4.041200e-18
9.330000e+01 4.072800e-18 4.072800e-18
9.340000e+01 4.104400e-18 4.104400e-18
9.350000e+01 4.136000e-18 4.136000e-18
9.360000e+01 4.167600e-18 4.167600e-18
9.370000e+01 4.199200e-18 4.199200e-18
9.380000e+01 4.230800e-18 4.230800e-18
9.390000e+01 4.262400e-18 4.262400e-18
9.400000e+01 4.294000e-18 4.294000e-18
9.410000e+01 4.325600e-18 4.325600e-18
9.420000e+01 4.357200e-18 4.357200e-18
9.430000e+01 4.388800e-18 4.388800e-18
9.440000e+01 4.420400e-18 4.420400e-18
9.450000e+01 4.452000e-18 4.452000e-18
9.460000e+01 4.483600e-18 4.483600e-18
9.470000e+01 4.515200e-18 4.515200e-18
9.480000e+01 4.546800e-18 4.546800e-18
9.490000e+01 4.578400e-18 4.578400e-18
9.500000e+01 4.610000e-18 4.610000e-18
9.510000e+01 4.640400e-18 4.640400e-18
9.520000e+01 4.670800e-18 4.670800e-18
9.530000e+01 4.701200e-18 4.701200e-18
9.540000e+01 4.731600e-18 4.731600e-18
9.550000e+01 4.762000e-18 4.762000e-18
9.560000e+01 4.792400e-18 4.792400e-18
9.570000e+01 4.822800e-18 4.822800e-18
9.580000e+01 4.853200e-18 4.853200e-18
9.590000e+01 4.883600e-18 4.883600e-18
9.600000e+01 4.914000e-18 4.914000e-18
9.610000e+01 4.944400e-18 4.944400e-18
9.620000e+01 4.974800e-18 4.974800e-18
9.630000e+01 5.005200e-18 5.005200e-18
9.640000e+01 5.035600e-18 5.035600e-18
9.650000e+01 5.066000e-18 5.066000e-18
9.660000e+01 5.096400e-18 5.096400e-18
9.670000e+01 5.126800e-18 5.126800e-18
9.680000e+01 5.157200e-18 5.157200e-18
9.690000e+01 5.187600e-18 5.187600e-18
9.700000e+01 5.218000e-18 5.218000e-18
9.710000e+01 5.248400e-18 5.248400e-18
9.720000e+01 5.278800e-18 5.278800e-18
9.730000e+01 5.309200e-18 5.309200e-18
9.740000e+01 5.339600e-18 5.339600e-18
9.750000e+01 5.370000e-18 5.370000e-18
9.760000e+01 5.397600e-18 5.397600e-18
9.770000e+01 5.425200e-18 5.425200e-18
9.780000e+01 5.452800e-18 5.452800e-18
9.790000e+01 5.480400e-18 5.480400e-18
9.800000e+01 5.508000e-18 5.508000e-18
9.810000e+01 5.535600e-18 5.535600e-18
9.820000e+01 5.563200e-18 5.563200e-18
9.830000e+01 5.590800e-18 5.590800e-18
9.840000e+01 5.618400e-18 5.618400e-18
9.850000e+01 5.646000e-18 5.646000e-18
9.860000e+01 5.673600e-18 5.673600e-18
9.870000e+01 5.701200e-18 5.701200e-18
9.880000e+01 5.728800e-18 5.728800e-18
9.890000e+01 5.756400e-18 5.756400e-18
9.900000e+01 5.784000e-18 5.784000e-18
9.910000e+01 5.811600e-18 5.811600e-18
9.920000e+01 5.839200e-18 5.839200e-18
9.930000e+01 5.866800e-18 5.866800e-18
9.940000e+01 5.894400e-18 5.894400e-18
9.950000e+01 5.922000e-18 5.922000e-18
9.960000e+01 5.949600e-18 5.949600e-18
9.970000e+01 5.977200e-18 5.977200e-18
9.980000e+01 6.004800e-18 6.004800e-18
9.990000e+01 6.032400e-18 6.032400e-18
1.000000e+02 6.060000e-18 6.060000e-18
1.001000e+02 6.081600e-18 6.081600e-18
1.002000e+02 6.103200e-18 6.103200e-18
1.003000e+02 6.124800e-18 6.124800e-18
1.004000e+02 6.146400e-18 6.146400e-18
1.005000e+02 6.168000e-18 6.168000e-18
1.006000e+02 6.189600e-18 6.189600e-18
1.007000e+02 6.211200e-18 6.211200e-18
1.008000e+02 6.232800e-18 6.232800e-18
1.009000e+02 6.254400e-18 6.254400e-18
1.010000e+02 6.276000e-18 6.276000e-18
1.011000e+02 6.297600e-18 6.297600e-18
1.012000e+02 6.319200e-18 6.319200e-18
1.013000e+02 6.340800e-18 6.340800e-18
1.014000e+02 6.362400e-18 6.362400e-18
1.015000e+02 6.384000e-18 6.384000e-18
1.016000e+02 6.405600e-18 6.405600e-18
1.017000e+02 6.427200e-18 6.427200e-18
1.018000e+02 6.448800e-18 6.448800e-18
1.019000e+02 6.470400e-18 6.470400e-18
1.020000e+02 6.492000e-18 6.492000e-18
1.021000e+02 6.513600e-18 6.513600e-18
1.022000e+02 6.535200e-18 6.535200e-18
1.023000e+02 6.556800e-18 6.556800e-18
1.024000e+02 6.578400e-18 6.578400e-18
1.025000e+02 6.600000e-18 6.600000e-18
1.026000e+02 6.621600e-18 6.621600e-18
1.027000e+02 6.643200e-18 6.643200e-18
1.028000e+02 6.664800e-18 6.664800e-18
1.029000e+02 6.686400e-18 6.686400e-18
1.030000e+02 6.708000e-18 6.708000e-18
1.031000e+02 6.729600e-18 6.729600e-18
1.032000e+02 6.751200e-18 6.751200e-18
1.033000e+02 6.772800e-18 6.772800e-18
1.034000e+02 6.794400e-18 6.794400e-18
1.035000e+02 6.816000e-18 6.816000e-18
1.036000e+02 6.837600e-18 6.837600e-18
1.037000e+02 6.859200e-18 6.859200e-18
1.038000e+02 6.880800e-18 6.880800e-18
1.039000e+02 6.902400e-18 6.902400e-18
1.040000e+02 6.924000e-18 6.924000e-18
1.041000e+02 6.945600e-18 6.945600e-18
1.042000e+02 6.967200e-18 6.967200e-18
1.043000e+02 6.988800e-18 6.988800e-18
1.044000e+02 7.010400e-18 7.010400e-18
1.045000e+02 7.032000e-18 7.032000e-18
1.046000e+02 7.053600e-18 7.053600e-18
1.047000e+02 7.075200e-18 7.075200e-18
1.048000e+02 7.096800e-18 7.096800e-18
1.049000e+02 7.118400e-18 7.118400e-18
1.050000e+02 7.140000e-18 7.140000e-18
1.051000e+02 7.149400e-18 7.149400e-18
1.052000e+02 7.158800e-18 7.158800e-18
1.053000e+02 7.168200e-18 7.168200e-18
1.054000e+02 7.177600e-18 7.177600e-18
1.055000e+02 7.187000e-18 7.187000e-18
1.056000e+02 7.196400e-18 7.196400e-18
1.057000e+02 7.205800e-18 7.205800e-18
1.058000e+02 7.215200e-18 7.215200e-18
1.059000e+02 7.224600e-18 7.224600e-18
1.060000e+02 7.234000e-18 7.234000e-18
1.061000e+02 7.243400e-18 7.243400e-18
1.062000e+02 7.252800e-18 7.252800e-18
1.063000e+02 7.262200e-18 7.262200e-18
1.064000e+02 7.271600e-18 7.271600e-18
1.065000e+02 7.281000e-18 7.281000e-18
1.066000e+02 7.290400e-18 7.290400e-18
1.067000e+02 7.299800e-18 7.299800e-18
1.068000e+02 7.309200e-18 7.309200e-18
1.069000e+02 7.318600e-18 7.318600e-18
1.070000e+02 7.328000e-18 7.328000e-18
1.071000e+02 7.337400e-18 7.337400e-18
1.072000e+02 7.346800e-18 7.346800e-18
1.073000e+02 7.356200e-18 7.356200e-18
1.074000e+02 7.365600e-18 7.365600e-18
1.075000e+02 7.375000e-18 7.375000e-18
1.076000e+02 7.384400e-18 7.384400e-18
1.077000e+02 7.393800e-18 7.393800e-18
1.078000e+02 7.403200e-18 7.403200e-18
1.079000e+02 7.412600e-18 7.412600e-18
1.080000e+02 7.422000e-18 7.422000e-18
1.081000e+02 7.431400e-18 7.431400e-18
1.082000e+02 7.440800e-18 7.440800e-18
1.083000e+02 7.450200e-18 7.450200e-18
1.084000e+02 7.459600e-18 7.459600e-18
1.085000e+02 7.469000e-18 7.469000e-18
1.086000e+02 7.478400e-18 7.478400e-18
1.087000e+02 7.487800e-18 7.487800e-18
1.088000e+02 7.497200e-18 7.497200e-18
1.089000e+02 7.506600e-18 7.506600e-18
1.090000e+02 7.516000e-18 7.516000e-18
1.091000e+02 7.525400e-18 7.525400e-18
1.092000e+02 7.534800e-18 7.534800e-18
1.093000e+02 7.544200e-18 7.544200e-18
1.094000e+02 7.553600e-18 7.553600e-18
1.095000e+02 7.563000e-18 7.563000e-18
1.096000e+02 7.572400e-18 7.572400e-18
1.097000e+02 7.581800e-18 7.581800e-18
1.098000e+02 7.591200e-18 7.591200e-18
1.099000e+02 7.600600e-18 7.600600e-18
1.100000e+02 7.610000e-18 7.610000e-18
1.101000e+02 7.609200e-18 7.609200e-18
1.102000e+02 7.608400e-18 7.608400e-18
1.103000e+02 7.607600e-18 7.607600e-18
1.104000e+02 7.606800e-18 7.606800e-18
1.105000e+02 7.606000e-18 7.606000e-18
1.106000e+02 7.605200e-18 7.605200e-18
1.107000e+02 7.604400e-18 7.604400e-18
1.108000e+02 7.603600e-18 7.603600e-18
1.109000e+02 7.602800e-18 7.602800e-18
1.110000e+02 7.602000e-18 7.602000e-18
1.111000e+02 7.601200e-18 7.601200e-18
1.112000e+02 7.600400e-18 7.600400e-18
1.113000e+02 7.599600e-18 7.599600e-18
1.114000e+02 7.598800e-18 7.598800e-18
1.115000e+02 7.598000e-18 7.598000e-18
1.116000e+02 7.597200e-18 7.597200e-18
1.117000e+02 7.596400e-18 7.596400e-18
1.118000e+02 7.595600e-18 7.595600e-18
1.119000e+02 7.594800e-18 7.594800e-18
1.120000e+02 7.594000e-18 7.594000e-18
1.121000e+02 7.593200e-18 7.593200e-18
1.122000e+02 7.592400e-18 7.592400e-18
1.123000e+02 7.591600e-18 7.591600e-18
1.124000e+02 7.590800e-18 7.590800e-18
1.125000e+02 7.590000e-18 7.590000e-18
1.126000e+02 7.589200e-18 7.589200e-18
1.127000e+02 7.588400e-18 7.588400e-18
1.128000e+02 7.587600e-18 7.587600e-18
1.129000e+02 7.586800e-18 7.586800e-18
1.130000e+02 7.586000e-18 7.586000e-18
1.131000e+02 7.585200e-18 7.585200e-18
1.132000e+02 7.584400e-18 7.584400e-18
1.133000e+02 7.583600e-18 7.583600e-18
1.134000e+02 7.582800e-18 7.582800e-18
1.135000e+02 7.582000e-18 7.582000e-18
1.136000e+02 7.581200e-18 7.581200e-18
1.137000e+02 7.580400e-18 7.580400e-18
1.138000e+02 7.579600e-18 7.579600e-18
1.139000e+02 7.578800e-18 7.578800e-18
1.140000e+02 7.578000e-18 7.578000e-18
1.141000e+02 7.577200e-18 7.577200e-18
1.142000e+02 7.576400e-18 7.576400e-18
1.143000e+02 7.575600e-18 7.575600e-18
1.144000e+02 7.574800e-18 7.574800e-18
1.145000e+02 7.574000e-18 7.574000e-18
1.146000e+02 7.573200e-18 7.573200e-18
1.147000e+02 7.572400e-18 7.572400e-18
1.148000e+02 7.571600e-18 7.571600e-18
1.149000e+02 7.570800e-18 7.570800e-18
1.150000e+02 7.570000e-18 7.570000e-18
1.151000e+02 7.560200e-18 7.560200e-18
1.152000e+02 7.550400e-18 7.550400e-18
1.153000e+02 7.540600e-18 7.540600e-18
1.154000e+02 7.530800e-18 7.530800e-18
1.155000e+02 7.521000e-18 7.521000e-18
1.156000e+02 7.511200e-18 7.511200e-18
1.157000e+02 7.501400e-18 7.501400e-18
1.158000e+02 7.491600e-18 7.491600e-18
1.159000e+02 7.481800e-18 7.481800e-18
1.160000e+02 7.472000e-18 7.472000e-18
1.161000e+02 7.462200e-18 7.462200e-18
1.162000e+02 7.452400e-18 7.452400e-18
1.163000e+02 7.442600e-18 7.442600e-18
1.164000e+02 7.432800e-18 7.432800e-18
1.165000e+02 7.423000e-18 7.423000e-18
1.166000e+02 7.413200e-18 7.413200e-18
1.167000e+02 7.403400e-18 7.403400e-18
1.168000e+02 7.393600e-18 7.393600e-18
1.169000e+02 7.383800e-18 7.383800e-18
1.170000e+02 7.374000e-18 7.374000e-18
1.171000e+02 7.364200e-18 7.364200e-18
1.172000e+02 7.354400e-18 7.354400e-18
1.173000e+02 7.344600e-18 7.344600e-18
1.174000e+02 7.334800e-18 7.334800e-18
1.175000e+02 7.325000e-18 7.325000e-18
1.176000e+02 7.315200e-18 7.315200e-18
1.177000e+02 7.305400e-18 7.305400e-18
1.178000e+02 7.295600e-18 7.295600e-18
1.179000e+02 7.285800e-18 7.285800e-18
1.180000e+02 7.276000e-18 7.276000e-18
1.181000e+02 7.266200e-18 7.266200e-18
1.182000e+02 7.256400e-18 7.256400e-18
1.183000e+02 7.246600e-18 7.246600e-18
1.184000e+02 7.236800e-18 7.236800e-18
1.185000e+02 7.227000e-18 7.227000e-18
1.186000e+02 7.217200e-18 7.217200e-18
1.187000e+02 7.207400e-18 7.207400e-18
1.188000e+02 7.197600e-18 7.197600e-18
1.189000e+02 7.187800e-18 7.187800e-18
1.190000e+02 7.178000e-18 7.178000e-18
1.191000e+02 7.168200e-18 7.168200e-18
1.192000e+02 7.158400e-18 7.158400e-18
1.193000e+02 7.148600e-18 7.148600e-18
1.194000e+02 7.138800e-18 7.138800e-18
1.195000e+02 7.129000e-18 7.129000e-18
1.196000e+02 7.119200e-18 7.119200e-18
1.197000e+02 7.109400e-18 7.109400e-18
1.198000e+02 7.099600e-18 7.099600e-18
1.199000e+02 7.089800e-18 7.089800e-18
1.200000e+02 7.080000e-18 7.080000e-18
1.201000e+02 7.064000e-18 7.064000e-18
1.202000e+02 7.048000e-18 7.048000e-18
1.203000e+02 7.032000e-18 7.032000e-18
1.204000e+02 7.016000e-18 7.016000e-18
1.205000e+02 7.000000e-18 7.000000e-18
1.206000e+02 6.984000e-18 6.984000e-18
1.207000e+02 6.968000e-18 6.968000e-18
1.208000e+02 6.952000e-18 6.952000e-18
1.209000e+02 6.936000e-18 6.936000e-18
1.210000e+02 6.920000e-18 6.920000e-18
1.211000e+02 6.904000e-18 6.904000e-18
1.212000e+02 6.888000e-18 6.888000e-18
1.213000e+02 6.872000e-18 6.872000e-18
1.214000e+02 6.856000e-18 6.856000e-18
1.215000e+02 6.840000e-18 6.840000e-18
1.216000e+02 6.824000e-18 6.824000e-18
1.217000e+02 6.808000e-18 6.808000e-18
1.218000e+02 6.792000e-18 6.792000e-18
1.219000e+02 6.776000e-18 6.776000e-18
1.220000e+02 6.760000e-18 6.760000e-18
1.221000e+02 6.744000e-18 6.744000e-18
1.222000e+02 6.728000e-18 6.728000e-18
1.223000e+02 6.712000e-18 6.712000e-18
1.224000e+02 6.696000e-18 6.696000e-18
1.225000e+02 6.680000e-18 6.680000e-18
1.226000e+02 6.664000e-18 6.664000e-18
1.227000e+02 6.648000e-18 6.648000e-18
1.228000e+02 6.632000e-18 6.632000e-18
1.229000e+02 6.616000e-18 6.616000e-18
1.230000e+02 6.600000e-18 6.600000e-18
1.231000e+02 6.584000e-18 6.584000e-18
1.232000e+02 6.568000e-18 6.568000e-18
1.233000e+02 6.552000e-18 6.552000e-18
1.234000e+02 6.536000e-18 6.536000e-18
1.235000e+02 6.520000e-18 6.520000e-18
1.236000e+02 6.504000e-18 6.504000e-18
1.237000e+02 6.488000e-18 6.488000e-18
1.238000e+02 6.472000e-18 6.472000e-18
1.239000e+02 6.456000e-18 6.456000e-18
1.240000e+02 6.440000e-18 6.440000e-18
1.241000e+02 6.424000e-18 6.424000e-18
1.242000e+02 6.408000e-18 6.408000e-18
1.243000e+02 6.392000e-18 6.392000e-18
1.244000e+02 6.376000e-18 6.376000e-18
1.245000e+02 6.360000e-18 6.360000e-18
1.246000e+02 6.344000e-18 6.344000e-18
1.247000e+02 6.328000e-18 6.328000e-18
1.248000e+02 6.312000e-18 6.312000e-18
1.249000e+02 6.296000e-18 6.296000e-18
1.250000e+02 6.280000e-18 6.280000e-18
1.251000e+02 6.260200e-18 6.260200e-18
1.252000e+02 6.240400e-18 6.240400e-18
1.253000e+02 6.220600e-18 6.220600e-18
1.254000e+02 6.200800e-18 6.200800e-18
1.255000e+02 6.181000e-18 6.181000e-18
1.256000e+02 6.161200e-18 6.161200e-18
1.257000e+02 6.141400e-18 6.141400e-18
1.258000e+02 6.121600e-18 6.121600e-18
1.259000e+02 6.101800e-18 6.101800e-18
1.260000e+02 6.082000e-18 6.082000e-18
1.261000e+02 6.062200e-18 6.062200e-18
1.262000e+02 6.042400e-18 6.042400e-18
1.263000e+02 6.022600e-18 6.022600e-18
1.264000e+02 6.002800e-18 6.002800e-18
1.265000e+02 5.983000e-18 5.983000e-18
1.266000e+02 5.963200e-18 5.963200e-18
1.267000e+02 5.943400e-18 5.943400e-18
1.268000e+02 5.923600e-18 5.923600e-18
1.269000e+02 5.903800e-18 5.903800e-18
1.270000e+02 5.884000e-18 5.884000e-18
1.271000e+02 5.864200e-18 5.864200e-18
1.272000e+02 5.844400e-18 5.844400e-18
1.273000e+02 5.824600e-18 5.824600e-18
1.274000e+02 5.804800e-18 5.804800e-18
1.275000e+02 5.785000e-18 5.785000e-18
1.276000e+02 5.765200e-18 5.765200e-18
1.277000e+02 5.745400e-18 5.745400e-18
1.278000e+02 5.725600e-18 5.725600e-18
1.279000e+02 5.705800e-18 5.705800e-18
1.280000e+02 5.686000e-18 5.686000e-18
1.281000e+02 5.666200e-18 5.666200e-18
1.282000e+02 5.646400e-18 5.646400e-18
1.283000e+02 5.626600e-18 5.626600e-18
1.284000e+02 5.606800e-18 5.606800e-18
1.285000e+02 5.587000e-18 5.587000e-18
1.286000e+02 5.567200e-18 5.567200e-18
1.287000e+02 5.547400e-18 5.547400e-18
1.288000e+02 5.527600e-18 5.527600e-18
1.289000e+02 5.507800e-18 5.507800e-18
1.290000e+02 5.488000e-18 5.488000e-18
1.291000e+02 5.468200e-18 5.468200e-18
1.292000e+02 5.448400e-18 5.448400e-18
1.293000e+02 5.428600e-18 5.428600e-18
1.294000e+02 5.408800e-18 5.408800e-18
1.295000e+02 5.389000e-18 5.389000e-18
1.296000e+02 5.369200e-18 5.369200e-18
1.297000e+02 5.349400e-18 5.349400e-18
1.298000e+02 5.329600e-18 5.329600e-18
1.299000e+02 5.309800e-18 5.309800e-18
1.300000e+02 5.290000e-18 5.290000e-18
1.301000e+02 5.274600e-18 5.274600e-18
1.302000e+02 5.259200e-18 5.259200e-18
1.303000e+02 5.243800e-18 5.243800e-18
1.304000e+02 5.228400e-18 5.228400e-18
1.305000e+02 5.213000e-18 5.213000e-18
1.306000e+02 5.197600e-18 5.197600e-18
1.307000e+02 5.182200e-18 5.182200e-18
1.308000e+02 5.166800e-18 5.166800e-18
1.309000e+02 5.151400e-18 5.151400e-18
1.310000e+02 5.136000e-18 5.136000e-18
1.311000e+02 5.120600e-18 5.120600e-18
1.312000e+02 5.105200e-18 5.105200e-18
1.313000e+02 5.089800e-18 5.089800e-18
1.314000e+02 5.074400e-18 5.074400e-18
1.315000e+02 5.059000e-18 5.059000e-18
1.316000e+02 5.043600e-18 5.043600e-18
1.317000e+02 5.028200e-18 5.028200e-18
1.318000e+02 5.012800e-18 5.012800e-18
1.319000e+02 4.997400e-18 4.997400e-18
1.320000e+02 4.982000e-18 4.982000e-18
1.321000e+02 4.966600e-18 4.966600e-18
1.322000e+02 4.951200e-18 4.951200e-18
1.323000e+02 4.935800e-18 4.935800e-18
1.324000e+02 4.920400e-18 4.920400e-18
1.325000e+02 4.905000e-18 4.905000e-18
1.326000e+02 4.889600e-18 4.889600e-18
1.327000e+02 4.874200e-18 4.874200e-18
1.328000e+02 4.858800e-18 4.858800e-18
1.329000e+02 4.843400e-18 4.843400e-18
1.330000e+02 4.828000e-18 4.828000e-18
1.331000e+02 4.812600e-18 4.812600e-18
1.332000e+02 4.797200e-18 4.797200e-18
1.333000e+02 4.781800e-18 4.781800e-18
1.334000e+02 4.766400e-18 4.766400e-18
1.335000e+02 4.751000e-18 4.751000e-18
1.336000e+02 4.735600e-18 4.735600e-18
1.337000e+02 4.720200e-18 4.720200e-18
1.338000e+02 4.704800e-18 4.704800e-18
1.339000e+02 4.689400e-18 4.689400e-18
1.340000e+02 4.674000e-18 4.674000e-18
1.341000e+02 4.658600e-18 4.658600e-18
1.342000e+02 4.643200e-18 4.643200e-18
1.343000e+02 4.627800e-18 4.627800e-18
1.344000e+02 4.612400e-18 4.612400e-18
1.345000e+02 4.597000e-18 4.597000e-18
1.346000e+02 4.581600e-18 4.581600e-18
1.347000e+02 4.566200e-18 4.566200e-18
1.348000e+02 4.550800e-18 4.550800e-18
1.349000e+02 4.535400e-18 4.535400e-18
1.350000e+02 4.520000e-18 4.520000e-18
1.351000e+02 4.495800e-18 4.495800e-18
1.352000e+02 4.471600e-18 4.471600e-18
1.353000e+02 4.447400e-18 4.447400e-18
1.354000e+02 4.423200e-18 4.423200e-18
1.355000e+02 4.399000e-18 4.399000e-18
1.356000e+02 4.374800e-18 4.374800e-18
1.357000e+02 4.350600e-18 4.350600e-18
1.358000e+02 4.326400e-18 4.326400e-18
1.359000e+02 4.302200e-18 4.302200e-18
1.360000e+02 4.278000e-18 4.278000e-18
1.361000e+02 4.253800e-18 4.253800e-18
1.362000e+02 4.229600e-18 4.229600e-18
1.363000e+02 4.205400e-18 4.205400e-18
1.364000e+02 4.181200e-18 4.181200e-18
1.365000e+02 4.157000e-18 4.157000e-18
1.366000e+02 4.132800e-18 4.132800e-18
1.367000e+02 4.108600e-18 4.108600e-18
1.368000e+02 4.084400e-18 4.084400e-18
1.369000e+02 4.060200e-18 4.060200e-18
1.370000e+02 4.036000e-18 4.036000e-18
1.371000e+02 4.011800e-18 4.011800e-18
1.372000e+02 3.987600e-18 3.987600e-18
1.373000e+02 3.963400e-18 3.963400e-18
1.374000e+02 3.939200e-18 3.939200e-18
1.375000e+02 3.915000e-18 3.915000e-18
1.376000e+02 3.890800e-18 3.890800e-18
1.377000e+02 3.866600e-18 3.866600e-18
1.378000e+02 3.842400e-18 3.842400e-18
1.379000e+02 3.818200e-18 3.818200e-18
1.380000e+02 3.794000e-18 3.794000e-18
1.381000e+02 3.769800e-18 3.769800e-18
1.382000e+02 3.745600e-18 3.745600e-18
1.383000e+02 3.721400e-18 3.721400e-18
1.384000e+02 3.697200e-18 3.697200e-18
1.385000e+02 3.673000e-18 3.673000e-18
1.386000e+02 3.648800e-18 3.648800e-18
1.387000e+02 3.624600e-18 3.624600e-18
1.388000e+02 3.600400e-18 3.600400e-18
1.389000e+02 3.576200e-18 3.576200e-18
1.390000e+02 3.552000e-18 3.552000e-18
1.391000e+02 3.527800e-18 3.527800e-18
1.392000e+02 3.503600e-18 3.503600e-18
1.393000e+02 3.479400e-18 3.479400e-18
1.394000e+02 3.455200e-18 3.455200e-18
1.395000e+02 3.431000e-18 3.431000e-18
1.396000e+02 3.406800e-18 3.406800e-18
1.397000e+02 3.382600e-18 3.382600e-18
1.398000e+02 3.358400e-18 3.358400e-18
1.399000e+02 3.334200e-18 3.334200e-18
1.400000e+02 3.310000e-18 3.310000e-18
1.401000e+02 3.293400e-18 3.293400e-18
1.402000e+02 3.276800e-18 3.276800e-18
1.403000e+02 3.260200e-18 3.260200e-18
1.404000e+02 3.243600e-18 3.243600e-18
1.405000e+02 3.227000e-18 3.227000e-18
1.406000e+02 3.210400e-18 3.210400e-18
1.407000e+02 3.193800e-18 3.193800e-18
1.408000e+02 3.177200e-18 3.177200e-18
1.409000e+02 3.160600e-18 3.160600e-18
1.410000e+02 3.144000e-18 3.144000e-18
1.411000e+02 3.127400e-18 3.127400e-18
1.412000e+02 3.110800e-18 3.110800e-18
1.413000e+02 3.094200e-18 3.094200e-18
1.414000e+02 3.077600e-18 3.077600e-18
1.415000e+02 3.061000e-18 3.061000e-18
1.416000e+02 3.044400e-18 3.044400e-18
1.417000e+02 3.027800e-18 3.027800e-18
1.418000e+02 3.011200e-18 3.011200e-18
1.419000e+02 2.994600e-18 2.994600e-18
1.420000e+02 2.978000e-18 2.978000e-18
1.421000e+02 2.961400e-18 2.961400e-18
1.422000e+02 2.944800e-18 2.944800e-18
1.423000e+02 2.928200e-18 2.928200e-18
1.424000e+02 2.911600e-18 2.911600e-18
1.425000e+02 2.895000e-18 2.895000e-18
1.426000e+02 2.878400e-18 2.878400e-18
1.427000e+02 2.861800e-18 2.861800e-18
1.428000e+02 2.845200e-18 2.845200e-18
1.429000e+02 2.828600e-18 2.828600e-18
1.430000e+02 2.812000e-18 2.812000e-18
1.431000e+02 2.795400e-18 2.795400e-18
1.432000e+02 2.778800e-18 2.778800e-18
1.433000e+02 2.762200e-18 2.762200e-18
1.434000e+02 2.745600e-18 2.745600e-18
1.435000e+02 2.729000e-18 2.729000e-18
1.436000e+02 2.712400e-18 2.712400e-18
1.437000e+02 2.695800e-18 2.695800e-18
1.438000e+02 2.679200e-18 2.679200e-18
1.439000e+02 2.662600e-18 2.662600e-18
1.440000e+02 2.646000e-18 2.646000e-18
1.441000e+02 2.629400e-18 2.629400e-18
1.442000e+02 2.612800e-18 2.612800e-18
1.443000e+02 2.596200e-18 2.596200e-18
1.444000e+02 2.579600e-18 2.579600e-18
1.445000e+02 2.563000e-18 2.563000e-18
1.446000e+02 2.546400e-18 2.546400e-18
1.447000e+02 2.529800e-18 2.529800e-18
1.448000e+02 2.513200e-18 2.513200e-18
1.449000e+02 2.496600e-18 2.496600e-18
1.450000e+02 2.480000e-18 2.480000e-18
1.451000e+02 2.466600e-18 2.466600e-18
1.452000e+02 2.453200e-18 2.453200e-18
1.453000e+02 2.439800e-18 2.439800e-18
1.454000e+02 2.426400e-18 2.426400e-18
1.455000e+02 2.413000e-18 2.413000e-18
1.456000e+02 2.399600e-18 2.399600e-18
1.457000e+02 2.386200e-18 2.386200e-18
1.458000e+02 2.372800e-18 2.372800e-18
1.459000e+02 2.359400e-18 2.359400e-18
1.460000e+02 2.346000e-18 2.346000e-18
1.461000e+02 2.332600e-18 2.332600e-18
1.462000e+02 2.319200e-18 2.319200e-18
1.463000e+02 2.305800e-18 2.305800e-18
1.464000e+02 2.292400e-18 2.292400e-18
1.465000e+02 2.279000e-18 2.279000e-18
1.466000e+02 2.265600e-18 2.265600e-18
1.467000e+02 2.252200e-18 2.252200e-18
1.468000e+02 2.238800e-18 2.238800e-18
1.469000e+02 2.225400e-18 2.225400e-18
1.470000e+02 2.212000e-18 2.212000e-18
1.471000e+02 2.198600e-18 2.198600e-18
1.472000e+02 2.185200e-18 2.185200e-18
1.473000e+02 2.171800e-18 2.171800e-18
1.474000e+02 2.158400e-18 2.158400e-18
1.475000e+02 2.145000e-18 2.145000e-18
1.476000e+02 2.131600e-18 2.131600e-18
1.477000e+02 2.118200e-18 2.118200e-18
1.478000e+02 2.104800e-18 2.104800e-18
1.479000e+02 2.091400e-18 2.091400e-18
1.480000e+02 2.078000e-18 2.078000e-18
1.481000e+02 2.064600e-18 2.064600e-18
1.482000e+02 2.051200e-18 2.051200e-18
1.483000e+02 2.037800e-18 2.037800e-18
1.484000e+02 2.024400e-18 2.024400e-18
1.485000e+02 2.011000e-18 2.011000e-18
1.486000e+02 1.997600e-18 1.997600e-18
1.487000e+02 1.984200e-18 1.984200e-18
1.488000e+02 1.970800e-18 1.970800e-18
1.489000e+02 1.957400e-18 1.957400e-18
1.490000e+02 1.944000e-18 1.944000e-18
1.491000e+02 1.930600e-18 1.930600e-18
1.492000e+02 1.917200e-18 1.917200e-18
1.493000e+02 1.903800e-18 1.903800e-18
1.494000e+02 1.890400e-18 1.890400e-18
1.495000e+02 1.877000e-18 1.877000e-18
1.496000e+02 1.863600e-18 1.863600e-18
1.497000e+02 1.850200e-18 1.850200e-18
1.498000e+02 1.836800e-18 1.836800e-18
1.499000e+02 1.823400e-18 1.823400e-18
1.500000e+02 1.810000e-18 1.810000e-18
1.501000e+02 1.799400e-18 1.799400e-18
1.502000e+02 1.788800e-18 1.788800e-18
1.503000e+02 1.778200e-18 1.778200e-18
1.504000e+02 1.767600e-18 1.767600e-18
1.505000e+02 1.757000e-18 1.757000e-18
1.506000e+02 1.746400e-18 1.746400e-18
1.507000e+02 1.735800e-18 1.735800e-18
1.508000e+02 1.725200e-18 1.725200e-18
1.509000e+02 1.714600e-18 1.714600e-18
1.510000e+02 1.704000e-18 1.704000e-18
1.511000e+02 1.693400e-18 1.693400e-18
1.512000e+02 1.682800e-18 1.682800e-18
1.513000e+02 1.672200e-18 1.672200e-18
1.514000e+02 1.661600e-18 1.661600e-18
1.515000e+02 1.651000e-18 1.651000e-18
1.516000e+02 1.640400e-18 1.640400e-18
1.517000e+02 1.629800e-18 1.629800e-18
1.518000e+02 1.619200e-18 1.619200e-18
1.519000e+02 1.608600e-18 1.608600e-18
1.520000e+02 1.598000e-18 1.598000e-18
1.521000e+02 1.587400e-18 1.587400e-18
1.522000e+02 1.576800e-18 1.576800e-18
1.523000e+02 1.566200e-18 1.566200e-18
1.524000e+02 1.555600e-18 1.555600e-18
1.525000e+02 1.545000e-18 1.545000e-18
1.526000e+02 1.534400e-18 1.534400e-18
1.527000e+02 1.523800e-18 1.523800e-18
1.528000e+02 1.513200e-18 1.513200e-18
1.529000e+02 1.502600e-18 1.502600e-18
1.530000e+02 1.492000e-18 1.492000e-18
1.531000e+02 1.481400e-18 1.481400e-18
1.532000e+02 1.470800e-18 1.470800e-18
1.533000e+02 1.460200e-18 1.460200e-18
1.534000e+02 1.449600e-18 1.449600e-18
1.535000e+02 1.439000e-18 1.439000e-18
1.536000e+02 1.428400e-18 1.428400e-18
1.537000e+02 1.417800e-18 1.417800e-18
1.538000e+02 1.407200e-18 1.407200e-18
1.539000e+02 1.396600e-18 1.396600e-18
1.540000e+02 1.386000e-18 1.386000e-18
1.541000e+02 1.375400e-18 1.375400e-18
1.542000e+02 1.364800e-18 1.364800e-18
1.543000e+02 1.354200e-18 1.354200e-18
1.544000e+02 1.343600e-18 1.343600e-18
1.545000e+02 1.333000e-18 1.333000e-18
1.546000e+02 1.322400e-18 1.322400e-18
1.547000e+02 1.311800e-18 1.311800e-18
1.548000e+02 1.301200e-18 1.301200e-18
1.549000e+02 1.290600e-18 1.290600e-18
1.550000e+02 1.280000e-18 1.280000e-18
1.551000e+02 1.272220e-18 1.272220e-18
1.552000e+02 1.264440e-18 1.264440e-18
1.553000e+02 1.256660e-18 1.256660e-18
1.554000e+02 1.248880e-18 1.248880e-18
1.555000e+02 1.241100e-18 1.241100e-18
1.556000e+02 1.233320e-18 1.233320e-18
1.557000e+02 1.225540e-18 1.225540e-18
1.558000e+02 1.217760e-18 1.217760e-18
1.559000e+02 1.209980e-18 1.209980e-18
1.560000e+02 1.202200e-18 1.202200e-18
1.561000e+02 1.194420e-18 1.194420e-18
1.562000e+02 1.186640e-18 1.186640e-18
1.563000e+02 1.178860e-18 1.178860e-18
1.564000e+02 1.171080e-18 1.171080e-18
1.565000e+02 1.163300e-18 1.163300e-18
1.566000e+02 1.155520e-18 1.155520e-18
1.567000e+02 1.147740e-18 1.147740e-18
1.568000e+02 1.139960e-18 1.139960e-18
1.569000e+02 1.132180e-18 1.132180e-18
1.570000e+02 1.124400e-18 1.124400e-18
1.571000e+02 1.116620e-18 1.116620e-18
1.572000e+02 1.108840e-18 1.108840e-18
1.573000e+02 1.101060e-18 1.101060e-18
1.574000e+02 1.093280e-18 1.093280e-18
1.575000e+02 1.085500e-18 1.085500e-18
1.576000e+02 1.077720e-18 1.077720e-18
1.577000e+02 1.069940e-18 1.069940e-18
1.578000e+02 1.062160e-18 1.062160e-18
1.579000e+02 1.054380e-18 1.054380e-18
1.580000e+02 1.046600e-18 1.046600e-18
1.581000e+02 1.038820e-18 1.038820e-18
1.582000e+02 1.031040e-18 1.031040e-18
1.583000e+02 1.023260e-18 1.023260e-18
1.584000e+02 1.015480e-18 1.015480e-18
1.585000e+02 1.007700e-18 1.007700e-18
1.586000e+02 9.999200e-19 9.999200e-19
1.587000e+02 9.921400e-19 9.921400e-19
1.588000e+02 9.843600e-19 9.843600e-19
1.589000e+02 9.765800e-19 9.765800e-19
1.590000e+02 9.688000e-19 9.688000e-19
1.591000e+02 9.610200e-19 9.610200e-19
1.592000e+02 9.532400e-19 9.532400e-19
1.593000e+02 9.454600e-19 9.454600e-19
1.594000e+02 9.376800e-19 9.376800e-19
1.595000e+02 9.299000e-19 9.299000e-19
1.596000e+02 9.221200e-19 9.221200e-19
1.597000e+02 9.143400e-19 9.143400e-19
1.598000e+02 9.065600e-19 9.065600e-19
1.599000e+02 8.987800e-19 8.987800e-19
1.600000e+02 8.910000e-19 8.910000e-19
1.601000e+02 8.852400e-19 8.852400e-19
1.602000e+02 8.794800e-19 8.794800e-19
1.603000e+02 8.737200e-19 8.737200e-19
1.604000e+02 8.679600e-19 8.679600e-19
1.605000e+02 8.622000e-19 8.622000e-19
1.606000e+02 8.564400e-19 8.564400e-19
1.607000e+02 8.506800e-19 8.506800e-19
1.608000e+02 8.449200e-19 8.449200e-19
1.609000e+02 8.391600e-19 8.391600e-19
1.610000e+02 8.334000e-19 8.334000e-19
1.611000e+02 8.276400e-19 8.276400e-19
1.612000e+02 8.218800e-19 8.218800e-19
1.613000e+02 8.161200e-19 8.161200e-19
1.614000e+02 8.103600e-19 8.103600e-19
1.615000e+02 8.046000e-19 8.046000e-19
1.616000e+02 7.988400e-19 7.988400e-19
1.617000e+02 7.930800e-19 7.930800e-19
1.618000e+02 7.873200e-19 7.873200e-19
1.619000e+02 7.815600e-19 7.815600e-19
1.620000e+02 7.758000e-19 7.758000e-19
1.621000e+02 7.700400e-19 7.700400e-19
1.622000e+02 7.642800e-19 7.642800e-19
1.623000e+02 7.585200e-19 7.585200e-19
1.624000e+02 7.527600e-19 7.527600e-19
1.625000e+02 7.470000e-19 7.470000e-19
1.626000e+02 7.412400e-19 7.412400e-19
1.627000e+02 7.354800e-19 7.354800e-19
1.628000e+02 7.297200e-19 7.297200e-19
1.629000e+02 7.239600e-19 7.239600e-19
1.630000e+02 7.182000e-19 7.182000e-19
1.631000e+02 7.124400e-19 7.124400e-19
1.632000e+02 7.066800e-19 7.066800e-19
1.633000e+02 7.009200e-19 7.009200e-19
1.634000e+02 6.951600e-19 6.951600e-19
1.635000e+02 6.894000e-19 6.894000e-19
1.636000e+02 6.836400e-19 6.836400e-19
1.637000e+02 6.778800e-19 6.778800e-19
1.638000e+02 6.721200e-19 6.721200e-19
1.639000e+02 6.663600e-19 6.663600e-19
1.640000e+02 6.606000e-19 6.606000e-19
1.641000e+02 6.548400e-19 6.548400e-19
1.642000e+02 6.490800e-19 6.490800e-19
1.643000e+02 6.433200e-19 6.433200e-19
1.644000e+02 6.375600e-19 6.375600e-19
1.645000e+02 6.318000e-19 6.318000e-19
1.646000e+02 6.260400e-19 6.260400e-19
1.647000e+02 6.202800e-19 6.202800e-19
1.648000e+02 6.145200e-19 6.145200e-19
1.649000e+02 6.087600e-19 6.087600e-19
1.650000e+02 6.030000e-19 6.030000e-19
1.651000e+02 5.989200e-19 5.989200e-19
1.652000e+02 5.948400e-19 5.948400e-19
1.653000e+02 5.907600e-19 5.907600e-19
1.654000e+02 5.866800e-19 5.866800e-19
1.655000e+02 5.826000e-19 5.826000e-19
1.656000e+02 5.785200e-19 5.785200e-19
1.657000e+02 5.744400e-19 5.744400e-19
1.658000e+02 5.703600e-19 5.703600e-19
1.659000e+02 5.662800e-19 5.662800e-19
1.660000e+02 5.622000e-19 5.622000e-19
1.661000e+02 5.581200e-19 5.581200e-19
1.662000e+02 5.540400e-19 5.540400e-19
1.663000e+02 5.499600e-19 5.499600e-19
1.664000e+02 5.458800e-19 5.458800e-19
1.665000e+02 5.418000e-19 5.418000e-19
1.666000e+02 5.377200e-19 5.377200e-19
1.667000e+02 5.336400e-19 5.336400e-19
1.668000e+02 5.295600e-19 5.295600e-19
1.669000e+02 5.254800e-19 5.254800e-19
1.670000e+02 5.214000e-19 5.214000e-19
1.671000e+02 5.173200e-19 5.173200e-19
1.672000e+02 5.132400e-19 5.132400e-19
1.673000e+02 5.091600e-19 5.091600e-19
1.674000e+02 5.050800e-19 5.050800e-19
1.675000e+02 5.010000e-19 5.010000e-19
1.676000e+02 4.969200e-19 4.969200e-19
1.677000e+02 4.928400e-19 4.928400e-19
1.678000e+02 4.887600e-19 4.887600e-19
1.679000e+02 4.846800e-19 4.846800e-19
1.680000e+02 4.806000e-19 4.806000e-19
1.681000e+02 4.765200e-19 4.765200e-19
1.682000e+02 4.724400e-19 4.724400e-19
1.683000e+02 4.683600e-19 4.683600e-19
1.684000e+02 4.642800e-19 4.642800e-19
1.685000e+02 4.602000e-19 4.602000e-19
1.686000e+02 4.561200e-19 4.561200e-19
1.687000e+02 4.520400e-19 4.520400e-19
1.688000e+02 4.479600e-19 4.479600e-19
1.689000e+02 4.438800e-19 4.438800e-19
1.690000e+02 4.398000e-19 4.398000e-19
1.691000e+02 4.357200e-19 4.357200e-19
1.692000e+02 4.316400e-19 4.316400e-19
1.693000e+02 4.275600e-19 4.275600e-19
1.694000e+02 4.234800e-19 4.234800e-19
1.695000e+02 4.194000e-19 4.194000e-19
1.696000e+02 4.153200e-19 4.153200e-19
1.697000e+02 4.112400e-19 4.112400e-19
1.698000e+02 4.071600e-19 4.071600e-19
1.699000e+02 4.030800e-19 4.030800e-19
1.700000e+02 3.990000e-19 3.990000e-19
1.701000e+02 3.962000e-19 3.962000e-19
1.702000e+02 3.934000e-19 3.934000e-19
1.703000e+02 3.906000e-19 3.906000e-19
1.704000e+02 3.878000e-19 3.878000e-19
1.705000e+02 3.850000e-19 3.850000e-19
1.706000e+02 3.822000e-19 3.822000e-19
1.707000e+02 3.794000e-19 3.794000e-19
1.708000e+02 3.766000e-19 3.766000e-19
1.709000e+02 3.738000e-19 3.738000e-19
1.710000e+02 3.710000e-19 3.710000e-19
1.711000e+02 3.682000e-19 3.682000e-19
1.712000e+02 3.654000e-19 3.654000e-19
1.713000e+02 3.626000e-19 3.626000e-19
1.714000e+02 3.598000e-19 3.598000e-19
1.715000e+02 3.570000e-19 3.570000e-19
1.716000e+02 3.542000e-19 3.542000e-19
1.717000e+02 3.514000e-19 3.514000e-19
1.718000e+02 3.486000e-19 3.486000e-19
1.719000e+02 3.458000e-19 3.458000e-19
1.720000e+02 3.430000e-19 3.430000e-19
1.721000e+02 3.402000e-19 3.402000e-19
1.722000e+02 3.374000e-19 3.374000e-19
1.723000e+02 3.346000e-19 3.346000e-19
1.724000e+02 3.318000e-19 3.318000e-19
1.725000e+02 3.290000e-19 3.290000e-19
1.726000e+02 3.262000e-19 3.262000e-19
1.727000e+02 3.234000e-19 3.234000e-19
1.728000e+02 3.206000e-19 3.206000e-19
1.729000e+02 3.178000e-19 3.178000e-19
1.730000e+02 3.150000e-19 3.150000e-19
1.731000e+02 3.122000e-19 3.122000e-19
1.732000e+02 3.094000e-19 3.094000e-19
1.733000e+02 3.066000e-19 3.066000e-19
1.734000e+02 3.038000e-19 3.038000e-19
1.735000e+02 3.010000e-19 3.010000e-19
1.736000e+02 2.982000e-19 2.982000e-19
1.737000e+02 2.954000e-19 2.954000e-19
1.738000e+02 2.926000e-19 2.926000e-19
1.739000e+02 2.898000e-19 2.898000e-19
1.740000e+02 2.870000e-19 2.870000e-19
1.741000e+02 2.842000e-19 2.842000e-19
1.742000e+02 2.814000e-19 2.814000e-19
1.743000e+02 2.786000e-19 2.786000e-19
1.744000e+02 2.758000e-19 2.758000e-19
1.745000e+02 2.730000e-19 2.730000e-19
1.746000e+02 2.702000e-19 2.702000e-19
1.747000e+02 2.674000e-19 2.674000e-19
1.748000e+02 2.646000e-19 2.646000e-19
1.749000e+02 2.618000e-19 2.618000e-19
1.750000e+02 2.590000e-19 2.590000e-19
1.751000e+02 2.571200e-19 2.571200e-19
1.752000e+02 2.552400e-19 2.552400e-19
1.753000e+02 2.533600e-19 2.533600e-19
1.754000e+02 2.514800e-19 2.514800e-19
1.755000e+02 2.496000e-19 2.496000e-19
1.756000e+02 2.477200e-19 2.477200e-19
1.757000e+02 2.458400e-19 2.458400e-19
1.758000e+02 2.439600e-19 2.439600e-19
1.759000e+02 2.420800e-19 2.420800e-19
1.760000e+02 2.402000e-19 2.402000e-19
1.761000e+02 2.383200e-19 2.383200e-19
1.762000e+02 2.364400e-19 2.364400e-19
1.763000e+02 2.345600e-19 2.345600e-19
1.764000e+02 2.326800e-19 2.326800e-19
1.765000e+02 2.308000e-19 2.308000e-19
1.766000e+02 2.289200e-19 2.289200e-19
1.767000e+02 2.270400e-19 2.270400e-19
1.768000e+02 2.251600e-19 2.251600e-19
1.769000e+02 2.232800e-19 2.232800e-19
1.770000e+02 2.214000e-19 2.214000e-19
1.771000e+02 2.195200e-19 2.195200e-19
1.772000e+02 2.176400e-19 2.176400e-19
1.773000e+02 2.157600e-19 2.157600e-19
1.774000e+02 2.138800e-19 2.138800e-19
1.775000e+02 2.120000e-19 2.120000e-19
1.776000e+02 2.101200e-19 2.101200e-19
1.777000e+02 2.082400e-19 2.082400e-19
1.778000e+02 2.063600e-19 2.063600e-19
1.779000e+02 2.044800e-19 2.044800e-19
1.780000e+02 2.026000e-19 2.026000e-19
1.781000e+02 2.007200e-19 2.007200e-19
1.782000e+02 1.988400e-19 1.988400e-19
1.783000e+02 1.969600e-19 1.969600e-19
1.784000e+02 1.950800e-19 1.950800e-19
1.785000e+02 1.932000e-19 1.932000e-19
1.786000e+02 1.913200e-19 1.913200e-19
1.787000e+02 1.894400e-19 1.894400e-19
1.788000e+02 1.875600e-19 1.875600e-19
1.789000e+02 1.856800e-19 1.856800e-19
1.790000e+02 1.838000e-19 1.838000e-19
1.791000e+02 1.819200e-19 1.819200e-19
1.792000e+02 1.800400e-19 1.800400e-19
1.793000e+02 1.781600e-19 1.781600e-19
1.794000e+02 1.762800e-19 1.762800e-19
1.795000e+02 1.744000e-19 1.744000e-19
1.796000e+02 1.725200e-19 1.725200e-19
1.797000e+02 1.706400e-19 1.706400e-19
1.798000e+02 1.687600e-19 1.687600e-19
1.799000e+02 1.668800e-19 1.668800e-19
1.800000e+02 1.650000e-19 1.650000e-19
1.801000e+02 1.637800e-19 1.637800e-19
1.802000e+02 1.625600e-19 1.625600e-19
1.803000e+02 1.613400e-19 1.613400e-19
1.804000e+02 1.601200e-19 1.601200e-19
1.805000e+02 1.589000e-19 1.589000e-19
1.806000e+02 1.576800e-19 1.576800e-19
1.807000e+02 1.564600e-19 1.564600e-19
1.808000e+02 1.552400e-19 1.552400e-19
1.809000e+02 1.540200e-19 1.540200e-19
1.810000e+02 1.528000e-19 1.528000e-19
1.811000e+02 1.515800e-19 1.515800e-19
1.812000e+02 1.503600e-19 1.503600e-19
1.813000e+02 1.491400e-19 1.491400e-19
1.814000e+02 1.479200e-19 1.479200e-19
1.815000e+02 1.467000e-19 1.467000e-19
1.816000e+02 1.454800e-19 1.454800e-19
1.817000e+02 1.442600e-19 1.442600e-19
1.818000e+02 1.430400e-19 1.430400e-19
1.819000e+02 1.418200e-19 1.418200e-19
1.820000e+02 1.406000e-19 1.406000e-19
1.821000e+02 1.393800e-19 1.393800e-19
1.822000e+02 1.381600e-19 1.381600e-19
1.823000e+02 1.369400e-19 1.369400e-19
1.824000e+02 1.357200e-19 1.357200e-19
1.825000e+02 1.345000e-19 1.345000e-19
1.826000e+02 1.332800e-19 1.332800e-19
1.827000e+02 1.320600e-19 1.320600e-19
1.828000e+02 1.308400e-19 1.308400e-19
1.829000e+02 1.296200e-19 1.296200e-19
1.830000e+02 1.284000e-19 1.284000e-19
1.831000e+02 1.271800e-19 1.271800e-19
1.832000e+02 1.259600e-19 1.259600e-19
1.833000e+02 1.247400e-19 1.247400e-19
1.834000e+02 1.235200e-19 1.235200e-19
1.835000e+02 1.223000e-19 1.223000e-19
1.836000e+02 1.210800e-19 1.210800e-19
1.837000e+02 1.198600e-19 1.198600e-19
1.838000e+02 1.186400e-19 1.186400e-19
1.839000e+02 1.174200e-19 1.174200e-19
1.840000e+02 1.162000e-19 1.162000e-19
1.841000e+02 1.149800e-19 1.149800e-19
1.842000e+02 1.137600e-19 1.137600e-19
1.843000e+02 1.125400e-19 1.125400e-19
1.844000e+02 1.113200e-19 1.113200e-19
1.845000e+02 1.101000e-19 1.101000e-19
1.846000e+02 1.088800e-19 1.088800e-19
1.847000e+02 1.076600e-19 1.076600e-19
1.848000e+02 1.064400e-19 1.064400e-19
1.849000e+02 1.052200e-19 1.052200e-19
1.850000e+02 1.040000e-19 1.040000e-19
1.851000e+02 1.032060e-19 1.032060e-19
1.852000e+02 1.024120e-19 1.024120e-19
1.853000e+02 1.016180e-19 1.016180e-19
1.854000e+02 1.008240e-19 1.008240e-19
1.855000e+02 1.000300e-19 1.000300e-19
1.856000e+02 9.923600e-20 9.923600e-20
1.857000e+02 9.844200e-20 9.844200e-20
1.858000e+02 9.764800e-20 9.764800e-20
1.859000e+02 9.685400e-20 9.685400e-20
1.860000e+02 9.606000e-20 9.606000e-20
1.861000e+02 9.526600e-20 9.526600e-20
1.862000e+02 9.447200e-20 9.447200e-20
1.863000e+02 9.367800e-20 9.367800e-20
1.864000e+02 9.288400e-20 9.288400e-20
1.865000e+02 9.209000e-20 9.209000e-20
1.866000e+02 9.129600e-20 9.129600e-20
1.867000e+02 9.050200e-20 9.050200e-20
1.868000e+02 8.970800e-20 8.970800e-20
1.869000e+02 8.891400e-20 8.891400e-20
1.870000e+02 8.812000e-20 8.812000e-20
1.871000e+02 8.732600e-20 8.732600e-20
1.872000e+02 8.653200e-20 8.653200e-20
1.873000e+02 8.573800e-20 8.573800e-20
1.874000e+02 8.494400e-20 8.494400e-20
1.875000e+02 8.415000e-20 8.415000e-20
1.876000e+02 8.335600e-20 8.335600e-20
1.877000e+02 8.256200e-20 8.256200e-20
1.878000e+02 8.176800e-20 8.176800e-20
1.879000e+02 8.097400e-20 8.097400e-20
1.880000e+02 8.018000e-20 8.018000e-20
1.881000e+02 7.938600e-20 7.938600e-20
1.882000e+02 7.859200e-20 7.859200e-20
1.883000e+02 7.779800e-20 7.779800e-20
1.884000e+02 7.700400e-20 7.700400e-20
1.885000e+02 7.621000e-20 7.621000e-20
1.886000e+02 7.541600e-20 7.541600e-20
1.887000e+02 7.462200e-20 7.462200e-20
1.888000e+02 7.382800e-20 7.382800e-20
1.889000e+02 7.303400e-20 7.303400e-20
1.890000e+02 7.224000e-20 7.224000e-20
1.891000e+02 7.144600e-20 7.144600e-20
1.892000e+02 7.065200e-20 7.065200e-20
1.893000e+02 6.985800e-20 6.985800e-20
1.894000e+02 6.906400e-20 6.906400e-20
1.895000e+02 6.827000e-20 6.827000e-20
1.896000e+02 6.747600e-20 6.747600e-20
1.897000e+02 6.668200e-20 6.668200e-20
1.898000e+02 6.588800e-20 6.588800e-20
1.899000e+02 6.509400e-20 6.509400e-20
1.900000e+02 6.430000e-20 6.430000e-20
1.901000e+02 6.389600e-20 6.389600e-20
1.902000e+02 6.349200e-20 6.349200e-20
1.903000e+02 6.308800e-20 6.308800e-20
1.904000e+02 6.268400e-20 6.268400e-20
1.905000e+02 6.228000e-20 6.228000e-20
1.906000e+02 6.187600e-20 6.187600e-20
1.907000e+02 6.147200e-20 6.147200e-20
1.908000e+02 6.106800e-20 6.106800e-20
1.909000e+02 6.066400e-20 6.066400e-20
1.910000e+02 6.026000e-20 6.026000e-20
1.911000e+02 5.985600e-20 5.985600e-20
1.912000e+02 5.945200e-20 5.945200e-20
1.913000e+02 5.904800e-20 5.904800e-20
1.914000e+02 5.864400e-20 5.864400e-20
1.915000e+02 5.824000e-20 5.824000e-20
1.916000e+02 5.783600e-20 5.783600e-20
1.917000e+02 5.743200e-20 5.743200e-20
1.918000e+02 5.702800e-20 5.702800e-20
1.919000e+02 5.662400e-20 5.662400e-20
1.920000e+02 5.622000e-20 5.622000e-20
1.921000e+02 5.581600e-20 5.581600e-20
1.922000e+02 5.541200e-20 5.541200e-20
1.923000e+02 5.500800e-20 5.500800e-20
1.924000e+02 5.460400e-20 5.460400e-20
1.925000e+02 5.420000e-20 5.420000e-20
1.926000e+02 5.379600e-20 5.379600e-20
1.927000e+02 5.339200e-20 5.339200e-20
1.928000e+02 5.298800e-20 5.298800e-20
1.929000e+02 5.258400e-20 5.258400e-20
1.930000e+02 5.218000e-20 5.218000e-20
1.931000e+02 5.177600e-20 5.177600e-20
1.932000e+02 5.137200e-20 5.137200e-20
1.933000e+02 5.096800e-20 5.096800e-20
1.934000e+02 5.056400e-20 5.056400e-20
1.935000e+02 5.016000e-20 5.016000e-20
1.936000e+02 4.975600e-20 4.975600e-20
1.937000e+02 4.935200e-20 4.935200e-20
1.938000e+02 4.894800e-20 4.894800e-20
1.939000e+02 4.854400e-20 4.854400e-20
1.940000e+02 4.814000e-20 4.814000e-20
1.941000e+02 4.773600e-20 4.773600e-20
1.942000e+02 4.733200e-20 4.733200e-20
1.943000e+02 4.692800e-20 4.692800e-20
1.944000e+02 4.652400e-20 4.652400e-20
1.945000e+02 4.612000e-20 4.612000e-20
1.946000e+02 4.571600e-20 4.571600e-20
1.947000e+02 4.531200e-20 4.531200e-20
1.948000e+02 4.490800e-20 4.490800e-20
1.949000e+02 4.450400e-20 4.450400e-20
1.950000e+02 4.410000e-20 4.410000e-20
1.951000e+02 4.369600e-20 4.369600e-20
1.952000e+02 4.329200e-20 4.329200e-20
1.953000e+02 4.288800e-20 4.288800e-20
1.954000e+02 4.248400e-20 4.248400e-20
1.955000e+02 4.208000e-20 4.208000e-20
1.956000e+02 4.167600e-20 4.167600e-20
1.957000e+02 4.127200e-20 4.127200e-20
1.958000e+02 4.086800e-20 4.086800e-20
1.959000e+02 4.046400e-20 4.046400e-20
1.960000e+02 4.006000e-20 4.006000e-20
1.961000e+02 3.965600e-20 3.965600e-20
1.962000e+02 3.925200e-20 3.925200e-20
1.963000e+02 3.884800e-20 3.884800e-20
1.964000e+02 3.844400e-20 3.844400e-20
1.965000e+02 3.804000e-20 3.804000e-20
1.966000e+02 3.763600e-20 3.763600e-20
1.967000e+02 3.723200e-20 3.723200e-20
1.968000e+02 3.682800e-20 3.682800e-20
1.969000e+02 3.642400e-20 3.642400e-20
1.970000e+02 3.602000e-20 3.602000e-20
1.971000e+02 3.561600e-20 3.561600e-20
1.972000e+02 3.521200e-20 3.521200e-20
1.973000e+02 3.480800e-20 3.480800e-20
1.974000e+02 3.440400e-20 3.440400e-20
1.975000e+02 3.400000e-20 3.400000e-20
1.976000e+02 3.359600e-20 3.359600e-20
1.977000e+02 3.319200e-20 3.319200e-20
1.978000e+02 3.278800e-20 3.278800e-20
1.979000e+02 3.238400e-20 3.238400e-20
1.980000e+02 3.198000e-20 3.198000e-20
1.981000e+02 3.157600e-20 3.157600e-20
1.982000e+02 3.117200e-20 3.117200e-20
1.983000e+02 3.076800e-20 3.076800e-20
1.984000e+02 3.036400e-20 3.036400e-20
1.985000e+02 2.996000e-20 2.996000e-20
1.986000e+02 2.955600e-20 2.955600e-20
1.987000e+02 2.915200e-20 2.915200e-20
1.988000e+02 2.874800e-20 2.874800e-20
1.989000e+02 2.834400e-20 2.834400e-20
1.990000e+02 2.794000e-20 2.794000e-20
1.991000e+02 2.753600e-20 2.753600e-20
1.992000e+02 2.713200e-20 2.713200e-20
1.993000e+02 2.672800e-20 2.672800e-20
1.994000e+02 2.632400e-20 2.632400e-20
1.995000e+02 2.592000e-20 2.592000e-20
1.996000e+02 2.551600e-20 2.551600e-20
1.997000e+02 2.511200e-20 2.511200e-20
1.998000e+02 2.470800e-20 2.470800e-20
1.999000e+02 2.430400e-20 2.430400e-20
2.000000e+02 2.390000e-20 2.390000e-20
2.001000e+02 2.374550e-20 2.374550e-20
2.002000e+02 2.359100e-20 2.359100e-20
2.003000e+02 2.343650e-20 2.343650e-20
2.004000e+02 2.328200e-20 2.328200e-20
2.005000e+02 2.312750e-20 2.312750e-20
2.006000e+02 2.297300e-20 2.297300e-20
2.007000e+02 2.281850e-20 2.281850e-20
2.008000e+02 2.266400e-20 2.266400e-20
2.009000e+02 2.250950e-20 2.250950e-20
2.010000e+02 2.235500e-20 2.235500e-20
2.011000e+02 2.220050e-20 2.220050e-20
2.012000e+02 2.204600e-20 2.204600e-20
2.013000e+02 2.189150e-20 2.189150e-20
2.014000e+02 2.173700e-20 2.173700e-20
2.015000e+02 2.158250e-20 2.158250e-20
2.016000e+02 2.142800e-20 2.142800e-20
2.017000e+02 2.127350e-20 2.127350e-20
2.018000e+02 2.111900e-20 2.111900e-20
2.019000e+02 2.096450e-20 2.096450e-20
2.020000e+02 2.081000e-20 2.081000e-20
2.021000e+02 2.065550e-20 2.065550e-20
2.022000e+02 2.050100e-20 2.050100e-20
2.023000e+02 2.034650e-20 2.034650e-20
2.024000e+02 2.019200e-20 2.019200e-20
2.025000e+02 2.003750e-20 2.003750e-20
2.026000e+02 1.988300e-20 1.988300e-20
2.027000e+02 1.972850e-20 1.972850e-20
2.028000e+02 1.957400e-20 1.957400e-20
2.029000e+02 1.941950e-20 1.941950e-20
2.030000e+02 1.926500e-20 1.926500e-20
2.031000e+02 1.911050e-20 1.911050e-20
2.032000e+02 1.895600e-20 1.895600e-20
2.033000e+02 1.880150e-20 1.880150e-20
2.034000e+02 1.864700e-20 1.864700e-20
2.035000e+02 1.849250e-20 1.849250e-20
2.036000e+02 1.833800e-20 1.833800e-20
2.037000e+02 1.818350e-20 1.818350e-20
2.038000e+02 1.802900e-20 1.802900e-20
2.039000e+02 1.787450e-20 1.787450e-20
2.040000e+02 1.772000e-20 1.772000e-20
2.041000e+02 1.756550e-20 1.756550e-20
2.042000e+02 1.741100e-20 1.741100e-20
2.043000e+02 1.725650e-20 1.725650e-20
2.044000e+02 1.710200e-20 1.710200e-20
2.045000e+02 1.694750e-20 1.694750e-20
2.046000e+02 1.679300e-20 1.679300e-20
2.047000e+02 1.663850e-20 1.663850e-20
2.048000e+02 1.648400e-20 1.648400e-20
2.049000e+02 1.632950e-20 1.632950e-20
2.050000e+02 1.617500e-20 1.617500e-20
2.051000e+02 1.602050e-20 1.602050e-20
2.052000e+02 1.586600e-20 1.586600e-20
2.053000e+02 1.571150e-20 1.571150e-20
2.054000e+02 1.555700e-20 1.555700e-20
2.055000e+02 1.540250e-20 1.540250e-20
2.056000e+02 1.524800e-20 1.524800e-20
2.057000e+02 1.509350e-20 1.509350e-20
2.058000e+02 1.493900e-20 1.493900e-20
2.059000e+02 1.478450e-20 1.478450e-20
2.060000e+02 1.463000e-20 1.463000e-20
2.061000e+02 1.447550e-20 1.447550e-20
2.062000e+02 1.432100e-20 1.432100e-20
2.063000e+02 1.416650e-20 1.416650e-20
2.064000e+02 1.401200e-20 1.401200e-20
2.065000e+02 1.385750e-20 1.385750e-20
2.066000e+02 1.370300e-20 1.370300e-20
2.067000e+02 1.354850e-20 1.354850e-20
2.068000e+02 1.339400e-20 1.339400e-20
2.069000e+02 1.323950e-20 1.323950e-20
2.070000e+02 1.308500e-20 1.308500e-20
2.071000e+02 1.293050e-20 1.293050e-20
2.072000e+02 1.277600e-20 1.277600e-20
2.073000e+02 1.262150e-20 1.262150e-20
2.074000e+02 1.246700e-20 1.246700e-20
2.075000e+02 1.231250e-20 1.231250e-20
2.076000e+02 1.215800e-20 1.215800e-20
2.077000e+02 1.200350e-20 1.200350e-20
2.078000e+02 1.184900e-20 1.184900e-20
2.079000e+02 1.169450e-20 1.169450e-20
2.080000e+02 1.154000e-20 1.154000e-20
2.081000e+02 1.138550e-20 1.138550e-20
2.082000e+02 1.123100e-20 1.123100e-20
2.083000e+02 1.107650e-20 1.107650e-20
2.084000e+02 1.092200e-20 1.092200e-20
2.085000e+02 1.076750e-20 1.076750e-20
2.086000e+02 1.061300e-20 1.061300e-20
2.087000e+02 1.045850e-20 1.045850e-20
2.088000e+02 1.030400e-20 1.030400e-20
2.089000e+02 1.014950e-20 1.014950e-20
2.090000e+02 9.995000e-21 9.995000e-21
2.091000e+02 9.840500e-21 9.840500e-21
2.092000e+02 9.686000e-21 9.686000e-21
2.093000e+02 9.531500e-21 9.531500e-21
2.094000e+02 9.377000e-21 9.377000e-21
2.095000e+02 9.222500e-21 9.222500e-21
2.096000e+02 9.068000e-21 9.068000e-21
2.097000e+02 8.913500e-21 8.913500e-21
2.098000e+02 8.759000e-21 8.759000e-21
2.099000e+02 8.604500e-21 8.604500e-21
2.100000e+02 8.450000e-21 8.450000e-21
2.101000e+02 8.393800e-21 8.393800e-21
2.102000e+02 8.337600e-21 8.337600e-21
2.103000e+02 8.281400e-21 8.281400e-21
2.104000e+02 8.225200e-21 8.225200e-21
2.105000e+02 8.169000e-21 8.169000e-21
2.106000e+02 8.112800e-21 8.112800e-21
2.107000e+02 8.056600e-21 8.056600e-21
2.108000e+02 8.000400e-21 8.000400e-21
2.109000e+02 7.944200e-21 7.944200e-21
2.110000e+02 7.888000e-21 7.888000e-21
2.111000e+02 7.831800e-21 7.831800e-21
2.112000e+02 7.775600e-21 7.775600e-21
2.113000e+02 7.719400e-21 7.719400e-21
2.114000e+02 7.663200e-21 7.663200e-21
2.115000e+02 7.607000e-21 7.607000e-21
2.116000e+02 7.550800e-21 7.550800e-21
2.117000e+02 7.494600e-21 7.494600e-21
2.118000e+02 7.438400e-21 7.438400e-21
2.119000e+02 7.382200e-21 7.382200e-21
2.120000e+02 7.326000e-21 7.326000e-21
2.121000e+02 7.269800e-21 7.269800e-21
2.122000e+02 7.213600e-21 7.213600e-21
2.123000e+02 7.157400e-21 7.157400e-21
2.124000e+02 7.101200e-21 7.101200e-21
2.125000e+02 7.045000e-21 7.045000e-21
2.126000e+02 6.988800e-21 6.988800e-21
2.127000e+02 6.932600e-21 6.932600e-21
2.128000e+02 6.876400e-21 6.876400e-21
2.129000e+02 6.820200e-21 6.820200e-21
2.130000e+02 6.764000e-21 6.764000e-21
2.131000e+02 6.707800e-21 6.707800e-21
2.132000e+02 6.651600e-21 6.651600e-21
2.133000e+02 6.595400e-21 6.595400e-21
2.134000e+02 6.539200e-21 6.539200e-21
2.135000e+02 6.483000e-21 6.483000e-21
2.136000e+02 6.426800e-21 6.426800e-21
2.137000e+02 6.370600e-21 6.370600e-21
2.138000e+02 6.314400e-21 6.314400e-21
2.139000e+02 6.258200e-21 6.258200e-21
2.140000e+02 6.202000e-21 6.202000e-21
2.141000e+02 6.145800e-21 6.145800e-21
2.142000e+02 6.089600e-21 6.089600e-21
2.143000e+02 6.033400e-21 6.033400e-21
2.144000e+02 5.977200e-21 5.977200e-21
2.145000e+02 5.921000e-21 5.921000e-21
2.146000e+02 5.864800e-21 5.864800e-21
2.147000e+02 5.808600e-21 5.808600e-21
2.148000e+02 5.752400e-21 5.752400e-21
2.149000e+02 5.696200e-21 5.696200e-21
2.150000e+02 5.640000e-21 5.640000e-21
2.151000e+02 5.583800e-21 5.583800e-21
2.152000e+02 5.527600e-21 5.527600e-21
2.153000e+02 5.471400e-21 5.471400e-21
2.154000e+02 5.415200e-21 5.415200e-21
2.155000e+02 5.359000e-21 5.359000e-21
2.156000e+02 5.302800e-21 5.302800e-21
2.157000e+02 5.246600e-21 5.246600e-21
2.158000e+02 5.190400e-21 5.190400e-21
2.159000e+02 5.134200e-21 5.134200e-21
2.160000e+02 5.078000e-21 5.078000e-21
2.161000e+02 5.021800e-21 5.021800e-21
2.162000e+02 4.965600e-21 4.965600e-21
2.163000e+02 4.909400e-21 4.909400e-21
2.164000e+02 4.853200e-21 4.853200e-21
2.165000e+02 4.797000e-21 4.797000e-21
2.166000e+02 4.740800e-21 4.740800e-21
2.167000e+02 4.684600e-21 4.684600e-21
2.168000e+02 4.628400e-21 4.628400e-21
2.169000e+02 4.572200e-21 4.572200e-21
2.170000e+02 4.516000e-21 4.516000e-21
2.171000e+02 4.459800e-21 4.459800e-21
2.172000e+02 4.403600e-21 4.403600e-21
2.173000e+02 4.347400e-21 4.347400e-21
2.174000e+02 4.291200e-21 4.291200e-21
2.175000e+02 4.235000e-21 4.235000e-21
2.176000e+02 4.178800e-21 4.178800e-21
2.177000e+02 4.122600e-21 4.122600e-21
2.178000e+02 4.066400e-21 4.066400e-21
2.179000e+02 4.010200e-21 4.010200e-21
2.180000e+02 3.954000e-21 3.954000e-21
2.181000e+02 3.897800e-21 3.897800e-21
2.182000e+02 3.841600e-21 3.841600e-21
2.183000e+02 3.785400e-21 3.785400e-21
2.184000e+02 3.729200e-21 3.729200e-21
2.185000e+02 3.673000e-21 3.673000e-21
2.186000e+02 3.616800e-21 3.616800e-21
2.187000e+02 3.560600e-21 3.560600e-21
2.188000e+02 3.504400e-21 3.504400e-21
2.189000e+02 3.448200e-21 3.448200e-21
2.190000e+02 3.392000e-21 3.392000e-21
2.191000e+02 3.335800e-21 3.335800e-21
2.192000e+02 3.279600e-21 3.279600e-21
2.193000e+02 3.223400e-21 3.223400e-21
2.194000e+02 3.167200e-21 3.167200e-21
2.195000e+02 3.111000e-21 3.111000e-21
2.196000e+02 3.054800e-21 3.054800e-21
2.197000e+02 2.998600e-21 2.998600e-21
2.198000e+02 2.942400e-21 2.942400e-21
2.199000e+02 2.886200e-21 2.886200e-21
2.200000e+02 2.830000e-21 2.830000e-21
2.201000e+02 2.817295e-21 2.817295e-21
2.202000e+02 2.804590e-21 2.804590e-21
2.203000e+02 2.791885e-21 2.791885e-21
2.204000e+02 2.779180e-21 2.779180e-21
2.205000e+02 2.766475e-21 2.766475e-21
2.206000e+02 2.753770e-21 2.753770e-21
2.207000e+02 2.741065e-21 2.741065e-21
2.208000e+02 2.728360e-21 2.728360e-21
2.209000e+02 2.715655e-21 2.715655e-21
2.210000e+02 2.702950e-21 2.702950e-21
2.211000e+02 2.690245e-21 2.690245e-21
2.212000e+02 2.677540e-21 2.677540e-21
2.213000e+02 2.664835e-21 2.664835e-21
2.214000e+02 2.652130e-21 2.652130e-21
2.215000e+02 2.639425e-21 2.639425e-21
2.216000e+02 2.626720e-21 2.626720e-21
2.217000e+02 2.614015e-21 2.614015e-21
2.218000e+02 2.601310e-21 2.601310e-21
2.219000e+02 2.588605e-21 2.588605e-21
2.220000e+02 2.575900e-21 2.575900e-21
2.221000e+02 2.563195e-21 2.563195e-21
2.222000e+02 2.550490e-21 2.550490e-21
2.223000e+02 2.537785e-21 2.537785e-21
2.224000e+02 2.525080e-21 2.525080e-21
2.225000e+02 2.512375e-21 2.512375e-21
2.226000e+02 2.499670e-21 2.499670e-21
2.227000e+02 2.486965e-21 2.486965e-21
2.228000e+02 2.474260e-21 2.474260e-21
2.229000e+02 2.461555e-21 2.461555e-21
2.230000e+02 2.448850e-21 2.448850e-21
2.231000e+02 2.436145e-21 2.436145e-21
2.232000e+02 2.423440e-21 2.423440e-21
2.233000e+02 2.410735e-21 2.410735e-21
2.234000e+02 2.398030e-21 2.398030e-21
2.235000e+02 2.385325e-21 2.385325e-21
2.236000e+02 2.372620e-21 2.372620e-21
2.237000e+02 2.359915e-21 2.359915e-21
2.238000e+02 2.347210e-21 2.347210e-21
2.239000e+02 2.334505e-21 2.334505e-21
2.240000e+02 2.321800e-21 2.321800e-21
2.241000e+02 2.309095e-21 2.309095e-21
2.242000e+02 2.296390e-21 2.296390e-21
2.243000e+02 2.283685e-21 2.283685e-21
2.244000e+02 2.270980e-21 2.270980e-21
2.245000e+02 2.258275e-21 2.258275e-21
2.246000e+02 2.245570e-21 2.245570e-21
2.247000e+02 2.232865e-21 2.232865e-21
2.248000e+02 2.220160e-21 2.220160e-21
2.249000e+02 2.207455e-21 2.207455e-21
2.250000e+02 2.194750e-21 2.194750e-21
2.251000e+02 2.182045e-21 2.182045e-21
2.252000e+02 2.169340e-21 2.169340e-21
2.253000e+02 2.156635e-21 2.156635e-21
2.254000e+02 2.143930e-21 2.143930e-21
2.255000e+02 2.131225e-21 2.131225e-21
2.256000e+02 2.118520e-21 2.118520e-21
2.257000e+02 2.105815e-21 2.105815e-21
2.258000e+02 2.093110e-21 2.093110e-21
2.259000e+02 2.080405e-21 2.080405e-21
2.260000e+02 2.067700e-21 2.067700e-21
2.261000e+02 2.054995e-21 2.054995e-21
2.262000e+02 2.042290e-21 2.042290e-21
2.263000e+02 2.029585e-21 2.029585e-21
2.264000e+02 2.016880e-21 2.016880e-21
2.265000e+02 2.004175e-21 2.004175e-21
2.266000e+02 1.991470e-21 1.991470e-21
2.267000e+02 1.978765e-21 1.978765e-21
2.268000e+02 1.966060e-21 1.966060e-21
2.269000e+02 1.953355e-21 1.953355e-21
2.270000e+02 1.940650e-21 1.940650e-21
2.271000e+02 1.927945e-21 1.927945e-21
2.272000e+02 1.915240e-21 1.915240e-21
2.273000e+02 1.902535e-21 1.902535e-21
2.274000e+02 1.889830e-21 1.889830e-21
2.275000e+02 1.877125e-21 1.877125e-21
2.276000e+02 1.864420e-21 1.864420e-21
2.277000e+02 1.851715e-21 1.851715e-21
2.278000e+02 1.839010e-21 1.839010e-21
2.279000e+02 1.826305e-21 1.826305e-21
2.280000e+02 1.813600e-21 1.813600e-21
2.281000e+02 1.800895e-21 1.800895e-21
2.282000e+02 1.788190e-21 1.788190e-21
2.283000e+02 1.775485e-21 1.775485e-21
2.284000e+02 1.762780e-21 1.762780e-21
2.285000e+02 1.750075e-21 1.750075e-21
2.286000e+02 1.737370e-21 1.737370e-21
2.287000e+02 1.724665e-21 1.724665e-21
2.288000e+02 1.711960e-21 1.711960e-21
2.289000e+02 1.699255e-21 1.699255e-21
2.290000e+02 1.686550e-21 1.686550e-21
2.291000e+02 1.673845e-21 1.673845e-21
2.292000e+02 1.661140e-21 1.661140e-21
2.293000e+02 1.648435e-21 1.648435e-21
2.294000e+02 1.635730e-21 1.635730e-21
2.295000e+02 1.623025e-21 1.623025e-21
2.296000e+02 1.610320e-21 1.610320e-21
2.297000e+02 1.597615e-21 1.597615e-21
2.298000e+02 1.584910e-21 1.584910e-21
2.299000e+02 1.572205e-21 1.572205e-21
2.300000e+02 1.559500e-21 1.559500e-21
2.301000e+02 1.546795e-21 1.546795e-21
2.302000e+02 1.534090e-21 1.534090e-21
2.303000e+02 1.521385e-21 1.521385e-21
2.304000e+02 1.508680e-21 1.508680e-21
2.305000e+02 1.495975e-21 1.495975e-21
2.306000e+02 1.483270e-21 1.483270e-21
2.307000e+02 1.470565e-21 1.470565e-21
2.308000e+02 1.457860e-21 1.457860e-21
2.309000e+02 1.445155e-21 1.445155e-21
2.310000e+02 1.432450e-21 1.432450e-21
2.311000e+02 1.419745e-21 1.419745e-21
2.312000e+02 1.407040e-21 1.407040e-21
2.313000e+02 1.394335e-21 1.394335e-21
2.314000e+02 1.381630e-21 1.381630e-21
2.315000e+02 1.368925e-21 1.368925e-21
2.316000e+02 1.356220e-21 1.356220e-21
2.317000e+02 1.343515e-21 1.343515e-21
2.318000e+02 1.330810e-21 1.330810e-21
2.319000e+02 1.318105e-21 1.318105e-21
2.320000e+02 1.305400e-21 1.305400e-21
2.321000e+02 1.292695e-21 1.292695e-21
2.322000e+02 1.279990e-21 1.279990e-21
2.323000e+02 1.267285e-21 1.267285e-21
2.324000e+02 1.254580e-21 1.254580e-21
2.325000e+02 1.241875e-21 1.241875e-21
2.326000e+02 1.229170e-21 1.229170e-21
2.327000e+02 1.216465e-21 1.216465e-21
2.328000e+02 1.203760e-21 1.203760e-21
2.329000e+02 1.191055e-21 1.191055e-21
2.330000e+02 1.178350e-21 1.178350e-21
2.331000e+02 1.165645e-21 1.165645e-21
2.332000e+02 1.152940e-21 1.152940e-21
2.333000e+02 1.140235e-21 1.140235e-21
2.334000e+02 1.127530e-21 1.127530e-21
2.335000e+02 1.114825e-21 1.114825e-21
2.336000e+02 1.102120e-21 1.102120e-21
2.337000e+02 1.089415e-21 1.089415e-21
2.338000e+02 1.076710e-21 1.076710e-21
2.339000e+02 1.064005e-21 1.064005e-21
2.340000e+02 1.051300e-21 1.051300e-21
2.341000e+02 1.038595e-21 1.038595e-21
2.342000e+02 1.025890e-21 1.025890e-21
2.343000e+02 1.013185e-21 1.013185e-21
2.344000e+02 1.000480e-21 1.000480e-21
2.345000e+02 9.877750e-22 9.877750e-22
2.346000e+02 9.750700e-22 9.750700e-22
2.347000e+02 9.623650e-22 9.623650e-22
2.348000e+02 9.496600e-22 9.496600e-22
2.349000e+02 9.369550e-22 9.369550e-22
2.350000e+02 9.242500e-22 9.242500e-22
2.351000e+02 9.115450e-22 9.115450e-22
2.352000e+02 8.988400e-22 8.988400e-22
2.353000e+02 8.861350e-22 8.861350e-22
2.354000e+02 8.734300e-22 8.734300e-22
2.355000e+02 8.607250e-22 8.607250e-22
2.356000e+02 8.480200e-22 8.480200e-22
2.357000e+02 8.353150e-22 8.353150e-22
2.358000e+02 8.226100e-22 8.226100e-22
2.359000e+02 8.099050e-22 8.099050e-22
2.360000e+02 7.972000e-22 7.972000e-22
2.361000e+02 7.844950e-22 7.844950e-22
2.362000e+02 7.717900e-22 7.717900e-22
2.363000e+02 7.590850e-22 7.590850e-22
2.364000e+02 7.463800e-22 7.463800e-22
2.365000e+02 7.336750e-22 7.336750e-22
2.366000e+02 7.209700e-22 7.209700e-22
2.367000e+02 7.082650e-22 7.082650e-22
2.368000e+02 6.955600e-22 6.955600e-22
2.369000e+02 6.828550e-22 6.828550e-22
2.370000e+02 6.701500e-22 6.701500e-22
2.371000e+02 6.574450e-22 6.574450e-22
2.372000e+02 6.447400e-22 6.447400e-22
2.373000e+02 6.320350e-22 6.320350e-22
2.374000e+02 6.193300e-22 6.193300e-22
2.375000e+02 6.066250e-22 6.066250e-22
2.376000e+02 5.939200e-22 5.939200e-22
2.377000e+02 5.812150e-22 5.812150e-22
2.378000e+02 5.685100e-22 5.685100e-22
2.379000e+02 5.558050e-22 5.558050e-22
2.380000e+02 5.431000e-22 5.431000e-22
2.381000e+02 5.303950e-22 5.303950e-22
2.382000e+02 5.176900e-22 5.176900e-22
2.383000e+02 5.049850e-22 5.049850e-22
2.384000e+02 4.922800e-22 4.922800e-22
2.385000e+02 4.795750e-22 4.795750e-22
2.386000e+02 4.668700e-22 4.668700e-22
2.387000e+02 4.541650e-22 4.541650e-22
2.388000e+02 4.414600e-22 4.414600e-22
2.389000e+02 4.287550e-22 4.287550e-22
2.390000e+02 4.160500e-22 4.160500e-22
2.391000e+02 4.033450e-22 4.033450e-22
2.392000e+02 3.906400e-22 3.906400e-22
2.393000e+02 3.779350e-22 3.779350e-22
2.394000e+02 3.652300e-22 3.652300e-22
2.395000e+02 3.525250e-22 3.525250e-22
2.396000e+02 3.398200e-22 3.398200e-22
2.397000e+02 3.271150e-22 3.271150e-22
2.398000e+02 3.144100e-22 3.144100e-22
2.399000e+02 3.017050e-22 3.017050e-22
2.400000e+02 2.890000e-22 2.890000e-22
2.401000e+02 2.876820e-22 2.876820e-22
2.402000e+02 2.863640e-22 2.863640e-22
2.403000e+02 2.850460e-22 2.850460e-22
2.404000e+02 2.837280e-22 2.837280e-22
2.405000e+02 2.824100e-22 2.824100e-22
2.406000e+02 2.810920e-22 2.810920e-22
2.407000e+02 2.797740e-22 2.797740e-22
2.408000e+02 2.784560e-22 2.784560e-22
2.409000e+02 2.771380e-22 2.771380e-22
2.410000e+02 2.758200e-22 2.758200e-22
2.411000e+02 2.745020e-22 2.745020e-22
2.412000e+02 2.731840e-22 2.731840e-22
2.413000e+02 2.718660e-22 2.718660e-22
2.414000e+02 2.705480e-22 2.705480e-22
2.415000e+02 2.692300e-22 2.692300e-22
2.416000e+02 2.679120e-22 2.679120e-22
2.417000e+02 2.665940e-22 2.665940e-22
2.418000e+02 2.652760e-22 2.652760e-22
2.419000e+02 2.639580e-22 2.639580e-22
2.420000e+02 2.626400e-22 2.626400e-22
2.421000e+02 2.613220e-22 2.613220e-22
2.422000e+02 2.600040e-22 2.600040e-22
2.423000e+02 2.586860e-22 2.586860e-22
2.424000e+02 2.573680e-22 2.573680e-22
2.425000e+02 2.560500e-22 2.560500e-22
2.426000e+02 2.547320e-22 2.547320e-22
2.427000e+02 2.534140e-22 2.534140e-22
2.428000e+02 2.520960e-22 2.520960e-22
2.429000e+02 2.507780e-22 2.507780e-22
2.430000e+02 2.494600e-22 2.494600e-22
2.431000e+02 2.481420e-22 2.481420e-22
2.432000e+02 2.468240e-22 2.468240e-22
2.433000e+02 2.455060e-22 2.455060e-22
2.434000e+02 2.441880e-22 2.441880e-22
2.435000e+02 2.428700e-22 2.428700e-22
2.436000e+02 2.415520e-22 2.415520e-22
2.437000e+02 2.402340e-22 2.402340e-22
2.438000e+02 2.389160e-22 2.389160e-22
2.439000e+02 2.375980e-22 2.375980e-22
2.440000e+02 2.362800e-22 2.362800e-22
2.441000e+02 2.349620e-22 2.349620e-22
2.442000e+02 2.336440e-22 2.336440e-22
2.443000e+02 2.323260e-22 2.323260e-22
2.444000e+02 2.310080e-22 2.310080e-22
2.445000e+02 2.296900e-22 2.296900e-22
2.446000e+02 2.283720e-22 2.283720e-22
2.447000e+02 2.270540e-22 2.270540e-22
2.448000e+02 2.257360e-22 2.257360e-22
2.449000e+02 2.244180e-22 2.244180e-22
2.450000e+02 2.231000e-22 2.231000e-22
2.451000e+02 2.217820e-22 2.217820e-22
2.452000e+02 2.204640e-22 2.204640e-22
2.453000e+02 2.191460e-22 2.191460e-22
2.454000e+02 2.178280e-22 2.178280e-22
2.455000e+02 2.165100e-22 2.165100e-22
2.456000e+02 2.151920e-22 2.151920e-22
2.457000e+02 2.138740e-22 2.138740e-22
2.458000e+02 2.125560e-22 2.125560e-22
2.459000e+02 2.112380e-22 2.112380e-22
2.460000e+02 2.099200e-22 2.099200e-22
2.461000e+02 2.086020e-22 2.086020e-22
2.462000e+02 2.072840e-22 2.072840e-22
2.463000e+02 2.059660e-22 2.059660e-22
2.464000e+02 2.046480e-22 2.046480e-22
2.465000e+02 2.033300e-22 2.033300e-22
2.466000e+02 2.020120e-22 2.020120e-22
2.467000e+02 2.006940e-22 2.006940e-22
2.468000e+02 1.993760e-22 1.993760e-22
2.469000e+02 1.980580e-22 1.980580e-22
2.470000e+02 1.967400e-22 1.967400e-22
2.471000e+02 1.954220e-22 1.954220e-22
2.472000e+02 1.941040e-22 1.941040e-22
2.473000e+02 1.927860e-22 1.927860e-22
2.474000e+02 1.914680e-22 1.914680e-22
2.475000e+02 1.901500e-22 1.901500e-22
2.476000e+02 1.888320e-22 1.888320e-22
2.477000e+02 1.875140e-22 1.875140e-22
2.478000e+02 1.861960e-22 1.861960e-22
2.479000e+02 1.848780e-22 1.848780e-22
2.480000e+02 1.835600e-22 1.835600e-22
2.481000e+02 1.822420e-22 1.822420e-22
2.482000e+02 1.809240e-22 1.809240e-22
2.483000e+02 1.796060e-22 1.796060e-22
2.484000e+02 1.782880e-22 1.782880e-22
2.485000e+02 1.769700e-22 1.769700e-22
2.486000e+02 1.756520e-22 1.756520e-22
2.487000e+02 1.743340e-22 1.743340e-22
2.488000e+02 1.730160e-22 1.730160e-22
2.489000e+02 1.716980e-22 1.716980e-22
2.490000e+02 1.703800e-22 1.703800e-22
2.491000e+02 1.690620e-22 1.690620e-22
2.492000e+02 1.677440e-22 1.677440e-22
2.493000e+02 1.664260e-22 1.664260e-22
2.494000e+02 1.651080e-22 1.651080e-22
2.495000e+02 1.637900e-22 1.637900e-22
2.496000e+02 1.624720e-22 1.624720e-22
2.497000e+02 1.611540e-22 1.611540e-22
2.498000e+02 1.598360e-22 1.598360e-22
2.499000e+02 1.585180e-22 1.585180e-22
2.500000e+02 1.572000e-22 1.572000e-22
2.501000e+02 1.558820e-22 1.558820e-22
2.502000e+02 1.545640e-22 1.545640e-22
2.503000e+02 1.532460e-22 1.532460e-22
2.504000e+02 1.519280e-22 1.519280e-22
2.505000e+02 1.506100e-22 1.506100e-22
2.506000e+02 1.492920e-22 1.492920e-22
2.507000e+02 1.479740e-22 1.479740e-22
2.508000e+02 1.466560e-22 1.466560e-22
2.509000e+02 1.453380e-22 1.453380e-22
2.510000e+02 1.440200e-22 1.440200e-22
2.511000e+02 1.427020e-22 1.427020e-22
2.512000e+02 1.413840e-22 1.413840e-22
2.513000e+02 1.400660e-22 1.400660e-22
2.514000e+02 1.387480e-22 1.387480e-22
2.515000e+02 1.374300e-22 1.374300e-22
2.516000e+02 1.361120e-22 1.361120e-22
2.517000e+02 1.347940e-22 1.347940e-22
2.518000e+02 1.334760e-22 1.334760e-22
2.519000e+02 1.321580e-22 1.321580e-22
2.520000e+02 1.308400e-22 1.308400e-22
2.521000e+02 1.295220e-22 1.295220e-22
2.522000e+02 1.282040e-22 1.282040e-22
2.523000e+02 1.268860e-22 1.268860e-22
2.524000e+02 1.255680e-22 1.255680e-22
2.525000e+02 1.242500e-22 1.242500e-22
2.526000e+02 1.229320e-22 1.229320e-22
2.527000e+02 1.216140e-22 1.216140e-22
2.528000e+02 1.202960e-22 1.202960e-22
2.529000e+02 1.189780e-22 1.189780e-22
2.530000e+02 1.176600e-22 1.176600e-22
2.531000e+02 1.163420e-22 1.163420e-22
2.532000e+02 1.150240e-22 1.150240e-22
2.533000e+02 1.137060e-22 1.137060e-22
2.534000e+02 1.123880e-22 1.123880e-22
2.535000e+02 1.110700e-22 1.110700e-22
2.536000e+02 1.097520e-22 1.097520e-22
2.537000e+02 1.084340e-22 1.084340e-22
2.538000e+02 1.071160e-22 1.071160e-22
2.539000e+02 1.057980e-22 1.057980e-22
2.540000e+02 1.044800e-22 1.044800e-22
2.541000e+02 1.031620e-22 1.031620e-22
2.542000e+02 1.018440e-22 1.018440e-22
2.543000e+02 1.005260e-22 1.005260e-22
2.544000e+02 9.920800e-23 9.920800e-23
2.545000e+02 9.789000e-23 9.789000e-23
2.546000e+02 9.657200e-23 9.657200e-23
2.547000e+02 9.525400e-23 9.525400e-23
2.548000e+02 9.393600e-23 9.393600e-23
2.549000e+02 9.261800e-23 9.261800e-23
2.550000e+02 9.130000e-23 9.130000e-23
2.551000e+02 8.998200e-23 8.998200e-23
2.552000e+02 8.866400e-23 8.866400e-23
2.553000e+02 8.734600e-23 8.734600e-23
2.554000e+02 8.602800e-23 8.602800e-23
2.555000e+02 8.471000e-23 8.471000e-23
2.556000e+02 8.339200e-23 8.339200e-23
2.557000e+02 8.207400e-23 8.207400e-23
2.558000e+02 8.075600e-23 8.075600e-23
2.559000e+02 7.943800e-23 7.943800e-23
2.560000e+02 7.812000e-23 7.812000e-23
2.561000e+02 7.680200e-23 7.680200e-23
2.562000e+02 7.548400e-23 7.548400e-23
2.563000e+02 7.416600e-23 7.416600e-23
2.564000e+02 7.284800e-23 7.284800e-23
2.565000e+02 7.153000e-23 7.153000e-23
2.566000e+02 7.021200e-23 7.021200e-23
2.567000e+02 6.889400e-23 6.889400e-23
2.568000e+02 6.757600e-23 6.757600e-23
2.569000e+02 6.625800e-23 6.625800e-23
2.570000e+02 6.494000e-23 6.494000e-23
2.571000e+02 6.362200e-23 6.362200e-23
2.572000e+02 6.230400e-23 6.230400e-23
2.573000e+02 6.098600e-23 6.098600e-23
2.574000e+02 5.966800e-23 5.966800e-23
2.575000e+02 5.835000e-23 5.835000e-23
2.576000e+02 5.703200e-23 5.703200e-23
2.577000e+02 5.571400e-23 5.571400e-23
2.578000e+02 5.439600e-23 5.439600e-23
2.579000e+02 5.307800e-23 5.307800e-23
2.580000e+02 5.176000e-23 5.176000e-23
2.581000e+02 5.044200e-23 5.044200e-23
2.582000e+02 4.912400e-23 4.912400e-23
2.583000e+02 4.780600e-23 4.780600e-23
2.584000e+02 4.648800e-23 4.648800e-23
2.585000e+02 4.517000e-23 4.517000e-23
2.586000e+02 4.385200e-23 4.385200e-23
2.587000e+02 4.253400e-23 4.253400e-23
2.588000e+02 4.121600e-23 4.121600e-23
2.589000e+02 3.989800e-23 3.989800e-23
2.590000e+02 3.858000e-23 3.858000e-23
2.591000e+02 3.726200e-23 3.726200e-23
2.592000e+02 3.594400e-23 3.594400e-23
2.593000e+02 3.462600e-23 3.462600e-23
2.594000e+02 3.330800e-23 3.330800e-23
2.595000e+02 3.199000e-23 3.199000e-23
2.596000e+02 3.067200e-23 3.067200e-23
2.597000e+02 2.935400e-23 2.935400e-23
2.598000e+02 2.803600e-23 2.803600e-23
2.599000e+02 2.671800e-23 2.671800e-23
2.600000e+02 2.540000e-23 2.540000e-23
2.601000e+02 2.528245e-23 2.528245e-23
2.602000e+02 2.516490e-23 2.516490e-23
2.603000e+02 2.504735e-23 2.504735e-23
2.604000e+02 2.492980e-23 2.492980e-23
2.605000e+02 2.481225e-23 2.481225e-23
2.606000e+02 2.469470e-23 2.469470e-23
2.607000e+02 2.457715e-23 2.457715e-23
2.608000e+02 2.445960e-23 2.445960e-23
2.609000e+02 2.434205e-23 2.434205e-23
2.610000e+02 2.422450e-23 2.422450e-23
2.611000e+02 2.410695e-23 2.410695e-23
2.612000e+02 2.398940e-23 2.398940e-23
2.613000e+02 2.387185e-23 2.387185e-23
2.614000e+02 2.375430e-23 2.375430e-23
2.615000e+02 2.363675e-23 2.363675e-23
2.616000e+02 2.351920e-23 2.351920e-23
2.617000e+02 2.340165e-23 2.340165e-23
2.618000e+02 2.328410e-23 2.328410e-23
2.619000e+02 2.316655e-23 2.316655e-23
2.620000e+02 2.304900e-23 2.304900e-23
2.621000e+02 2.293145e-23 2.293145e-23
2.622000e+02 2.281390e-23 2.281390e-23
2.623000e+02 2.269635e-23 2.269635e-23
2.624000e+02 2.257880e-23 2.257880e-23
2.625000e+02 2.246125e-23 2.246125e-23
2.626000e+02 2.234370e-23 2.234370e-23
2.627000e+02 2.222615e-23 2.222615e-23
2.628000e+02 2.210860e-23 2.210860e-23
2.629000e+02 2.199105e-23 2.199105e-23
2.630000e+02 2.187350e-23 2.187350e-23
2.631000e+02 2.175595e-23 2.175595e-23
2.632000e+02 2.163840e-23 2.163840e-23
2.633000e+02 2.152085e-23 2.152085e-23
2.634000e+02 2.140330e-23 2.140330e-23
2.635000e+02 2.128575e-23 2.128575e-23
2.636000e+02 2.116820e-23 2.116820e-23
2.637000e+02 2.105065e-23 2.105065e-23
2.638000e+02 2.093310e-23 2.093310e-23
2.639000e+02 2.081555e-23 2.081555e-23
2.640000e+02 2.069800e-23 2.069800e-23
2.641000e+02 2.058045e-23 2.058045e-23
2.642000e+02 2.046290e-23 2.046290e-23
2.643000e+02 2.034535e-23 2.034535e-23
2.644000e+02 2.022780e-23 2.022780e-23
2.645000e+02 2.011025e-23 2.011025e-23
2.646000e+02 1.999270e-23 1.999270e-23
2.647000e+02 1.987515e-23 1.987515e-23
2.648000e+02 1.975760e-23 1.975760e-23
2.649000e+02 1.964005e-23 1.964005e-23
2.650000e+02 1.952250e-23 1.952250e-23
2.651000e+02 1.940495e-23 1.940495e-23
2.652000e+02 1.928740e-23 1.928740e-23
2.653000e+02 1.916985e-23 1.916985e-23
2.654000e+02 1.905230e-23 1.905230e-23
2.655000e+02 1.893475e-23 1.893475e-23
2.656000e+02 1.881720e-23 1.881720e-23
2.657000e+02 1.869965e-23 1.869965e-23
2.658000e+02 1.858210e-23 1.858210e-23
2.659000e+02 1.846455e-23 1.846455e-23
2.660000e+02 1.834700e-23 1.834700e-23
2.661000e+02 1.822945e-23 1.822945e-23
2.662000e+02 1.811190e-23 1.811190e-23
2.663000e+02 1.799435e-23 1.799435e-23
2.664000e+02 1.787680e-23 1.787680e-23
2.665000e+02 1.775925e-23 1.775925e-23
2.666000e+02 1.764170e-23 1.764170e-23
2.667000e+02 1.752415e-23 1.752415e-23
2.668000e+02 1.740660e-23 1.740660e-23
2.669000e+02 1.728905e-23 1.728905e-23
2.670000e+02 1.717150e-23 1.717150e-23
2.671000e+02 1.705395e-23 1.705395e-23
2.672000e+02 1.693640e-23 1.693640e-23
2.673000e+02 1.681885e-23 1.681885e-23
2.674000e+02 1.670130e-23 1.670130e-23
2.675000e+02 1.658375e-23 1.658375e-23
2.676000e+02 1.646620e-23 1.646620e-23
2.677000e+02 1.634865e-23 1.634865e-23
2.678000e+02 1.623110e-23 1.623110e-23
2.679000e+02 1.611355e-23 1.611355e-23
2.680000e+02 1.599600e-23 1.599600e-23
2.681000e+02 1.587845e-23 1.587845e-23
2.682000e+02 1.576090e-23 1.576090e-23
2.683000e+02 1.564335e-23 1.564335e-23
2.684000e+02 1.552580e-23 1.552580e-23
2.685000e+02 1.540825e-23 1.540825e-23
2.686000e+02 1.529070e-23 1.529070e-23
2.687000e+02 1.517315e-23 1.517315e-23
2.688000e+02 1.505560e-23 1.505560e-23
2.689000e+02 1.493805e-23 1.493805e-23
2.690000e+02 1.482050e-23 1.482050e-23
2.691000e+02 1.470295e-23 1.470295e-23
2.692000e+02 1.458540e-23 1.458540e-23
2.693000e+02 1.446785e-23 1.446785e-23
2.694000e+02 1.435030e-23 1.435030e-23
2.695000e+02 1.423275e-23 1.423275e-23
2.696000e+02 1.411520e-23 1.411520e-23
2.697000e+02 1.399765e-23 1.399765e-23
2.698000e+02 1.388010e-23 1.388010e-23
2.699000e+02 1.376255e-23 1.376255e-23
2.700000e+02 1.364500e-23 1.364500e-23
2.701000e+02 1.352745e-23 1.352745e-23
2.702000e+02 1.340990e-23 1.340990e-23
2.703000e+02 1.329235e-23 1.329235e-23
2.704000e+02 1.317480e-23 1.317480e-23
2.705000e+02 1.305725e-23 1.305725e-23
2.706000e+02 1.293970e-23 1.293970e-23
2.707000e+02 1.282215e-23 1.282215e-23
2.708000e+02 1.270460e-23 1.270460e-23
2.709000e+02 1.258705e-23 1.258705e-23
2.710000e+02 1.246950e-23 1.246950e-23
2.711000e+02 1.235195e-23 1.235195e-23
2.712000e+02 1.223440e-23 1.223440e-23
2.713000e+02 1.211685e-23 1.211685e-23
2.714000e+02 1.199930e-23 1.199930e-23
2.715000e+02 1.188175e-23 1.188175e-23
2.716000e+02 1.176420e-23 1.176420e-23
2.717000e+02 1.164665e-23 1.164665e-23
2.718000e+02 1.152910e-23 1.152910e-23
2.719000e+02 1.141155e-23 1.141155e-23
2.720000e+02 1.129400e-23 1.129400e-23
2.721000e+02 1.117645e-23 1.117645e-23
2.722000e+02 1.105890e-23 1.105890e-23
2.723000e+02 1.094135e-23 1.094135e-23
2.724000e+02 1.082380e-23 1.082380e-23
2.725000e+02 1.070625e-23 1.070625e-23
2.726000e+02 1.058870e-23 1.058870e-23
2.727000e+02 1.047115e-23 1.047115e-23
2.728000e+02 1.035360e-23 1.035360e-23
2.729000e+02 1.023605e-23 1.023605e-23
2.730000e+02 1.011850e-23 1.011850e-23
2.731000e+02 1.000095e-23 1.000095e-23
2.732000e+02 9.883400e-24 9.883400e-24
2.733000e+02 9.765850e-24 9.765850e-24
2.734000e+02 9.648300e-24 9.648300e-24
2.735000e+02 9.530750e-24 9.530750e-24
2.736000e+02 9.413200e-24 9.413200e-24
2.737000e+02 9.295650e-24 9.295650e-24
2.738000e+02 9.178100e-24 9.178100e-24
2.739000e+02 9.060550e-24 9.060550e-24
2.740000e+02 8.943000e-24 8.943000e-24
2.741000e+02 8.825450e-24 8.825450e-24
2.742000e+02 8.707900e-24 8.707900e-24
2.743000e+02 8.590350e-24 8.590350e-24
2.744000e+02 8.472800e-24 8.472800e-24
2.745000e+02 8.355250e-24 8.355250e-24
2.746000e+02 8.237700e-24 8.237700e-24
2.747000e+02 8.120150e-24 8.120150e-24
2.748000e+02 8.002600e-24 8.002600e-24
2.749000e+02 7.885050e-24 7.885050e-24
2.750000e+02 7.767500e-24 7.767500e-24
2.751000e+02 7.649950e-24 7.649950e-24
2.752000e+02 7.532400e-24 7.532400e-24
2.753000e+02 7.414850e-24 7.414850e-24
2.754000e+02 7.297300e-24 7.297300e-24
2.755000e+02 7.179750e-24 7.179750e-24
2.756000e+02 7.062200e-24 7.062200e-24
2.757000e+02 6.944650e-24 6.944650e-24
2.758000e+02 6.827100e-24 6.827100e-24
2.759000e+02 6.709550e-24 6.709550e-24
2.760000e+02 6.592000e-24 6.592000e-24
2.761000e+02 6.474450e-24 6.474450e-24
2.762000e+02 6.356900e-24 6.356900e-24
2.763000e+02 6.239350e-24 6.239350e-24
2.764000e+02 6.121800e-24 6.121800e-24
2.765000e+02 6.004250e-24 6.004250e-24
2.766000e+02 5.886700e-24 5.886700e-24
2.767000e+02 5.769150e-24 5.769150e-24
2.768000e+02 5.651600e-24 5.651600e-24
2.769000e+02 5.534050e-24 5.534050e-24
2.770000e+02 5.416500e-24 5.416500e-24
2.771000e+02 5.298950e-24 5.298950e-24
2.772000e+02 5.181400e-24 5.181400e-24
2.773000e+02 5.063850e-24 5.063850e-24
2.774000e+02 4.946300e-24 4.946300e-24
2.775000e+02 4.828750e-24 4.828750e-24
2.776000e+02 4.711200e-24 4.711200e-24
2.777000e+02 4.593650e-24 4.593650e-24
2.778000e+02 4.476100e-24 4.476100e-24
2.779000e+02 4.358550e-24 4.358550e-24
2.780000e+02 4.241000e-24 4.241000e-24
2.781000e+02 4.123450e-24 4.123450e-24
2.782000e+02 4.005900e-24 4.005900e-24
2.783000e+02 3.888350e-24 3.888350e-24
2.784000e+02 3.770800e-24 3.770800e-24
2.785000e+02 3.653250e-24 3.653250e-24
2.786000e+02 3.535700e-24 3.535700e-24
2.787000e+02 3.418150e-24 3.418150e-24
2.788000e+02 3.300600e-24 3.300600e-24
2.789000e+02 3.183050e-24 3.183050e-24
2.790000e+02 3.065500e-24 3.065500e-24
2.791000e+02 2.947950e-24 2.947950e-24
2.792000e+02 2.830400e-24 2.830400e-24
2.793000e+02 2.712850e-24 2.712850e-24
2.794000e+02 2.595300e-24 2.595300e-24
2.795000e+02 2.477750e-24 2.477750e-24
2.796000e+02 2.360200e-24 2.360200e-24
2.797000e+02 2.242650e-24 2.242650e-24
2.798000e+02 2.125100e-24 2.125100e-24
2.799000e+02 2.007550e-24 2.007550e-24
2.800000e+02 1.890000e-24 1.890000e-24
2.801000e+02 1.881050e-24 1.881050e-24
2.802000e+02 1.872100e-24 1.872100e-24
2.803000e+02 1.863150e-24 1.863150e-24
2.804000e+02 1.854200e-24 1.854200e-24
2.805000e+02 1.845250e-24 1.845250e-24
2.806000e+02 1.836300e-24 1.836300e-24
2.807000e+02 1.827350e-24 1.827350e-24
2.808000e+02 1.818400e-24 1.818400e-24
2.809000e+02 1.809450e-24 1.809450e-24
2.810000e+02 1.800500e-24 1.800500e-24
2.811000e+02 1.791550e-24 1.791550e-24
2.812000e+02 1.782600e-24 1.782600e-24
2.813000e+02 1.773650e-24 1.773650e-24
2.814000e+02 1.764700e-24 1.764700e-24
2.815000e+02 1.755750e-24 1.755750e-24
2.816000e+02 1.746800e-24 1.746800e-24
2.817000e+02 1.737850e-24 1.737850e-24
2.818000e+02 1.728900e-24 1.728900e-24
2.819000e+02 1.719950e-24 1.719950e-24
2.820000e+02 1.711000e-24 1.711000e-24
2.821000e+02 1.702050e-24 1.702050e-24
2.822000e+02 1.693100e-24 1.693100e-24
2.823000e+02 1.684150e-24 1.684150e-24
2.824000e+02 1.675200e-24 1.675200e-24
2.825000e+02 1.666250e-24 1.666250e-24
2.826000e+02 1.657300e-24 1.657300e-24
2.827000e+02 1.648350e-24 1.648350e-24
2.828000e+02 1.639400e-24 1.639400e-24
2.829000e+02 1.630450e-24 1.630450e-24
2.830000e+02 1.621500e-24 1.621500e-24
2.831000e+02 1.612550e-24 1.612550e-24
2.832000e+02 1.603600e-24 1.603600e-24
2.833000e+02 1.594650e-24 1.594650e-24
2.834000e+02 1.585700e-24 1.585700e-24
2.835000e+02 1.576750e-24 1.576750e-24
2.836000e+02 1.567800e-24 1.567800e-24
2.837000e+02 1.558850e-24 1.558850e-24
2.838000e+02 1.549900e-24 1.549900e-24
2.839000e+02 1.540950e-24 1.540950e-24
2.840000e+02 1.532000e-24 1.532000e-24
2.841000e+02 1.523050e-24 1.523050e-24
2.842000e+02 1.514100e-24 1.514100e-24
2.843000e+02 1.505150e-24 1.505150e-24
2.844000e+02 1.496200e-24 1.496200e-24
2.845000e+02 1.487250e-24 1.487250e-24
2.846000e+02 1.478300e-24 1.478300e-24
2.847000e+02 1.469350e-24 1.469350e-24
2.848000e+02 1.460400e-24 1.460400e-24
2.849000e+02 1.451450e-24 1.451450e-24
2.850000e+02 1.442500e-24 1.442500e-24
2.851000e+02 1.433550e-24 1.433550e-24
2.852000e+02 1.424600e-24 1.424600e-24
2.853000e+02 1.415650e-24 1.415650e-24
2.854000e+02 1.406700e-24 1.406700e-24
2.855000e+02 1.397750e-24 1.397750e-24
2.856000e+02 1.388800e-24 1.388800e-24
2.857000e+02 1.379850e-24 1.379850e-24
2.858000e+02 1.370900e-24 1.370900e-24
2.859000e+02 1.361950e-24 1.361950e-24
2.860000e+02 1.353000e-24 1.353000e-24
2.861000e+02 1.344050e-24 1.344050e-24
2.862000e+02 1.335100e-24 1.335100e-24
2.863000e+02 1.326150e-24 1.326150e-24
2.864000e+02 1.317200e-24 1.317200e-24
2.865000e+02 1.308250e-24 1.308250e-24
2.866000e+02 1.299300e-24 1.299300e-24
2.867000e+02 1.290350e-24 1.290350e-24
2.868000e+02 1.281400e-24 1.281400e-24
2.869000e+02 1.272450e-24 1.272450e-24
2.870000e+02 1.263500e-24 1.263500e-24
2.871000e+02 1.254550e-24 1.254550e-24
2.872000e+02 1.245600e-24 1.245600e-24
2.873000e+02 1.236650e-24 1.236650e-24
2.874000e+02 1.227700e-24 1.227700e-24
2.875000e+02 1.218750e-24 1.218750e-24
2.876000e+02 1.209800e-24 1.209800e-24
2.877000e+02 1.200850e-24 1.200850e-24
2.878000e+02 1.191900e-24 1.191900e-24
2.879000e+02 1.182950e-24 1.182950e-24
2.880000e+02 1.174000e-24 1.174000e-24
2.881000e+02 1.165050e-24 1.165050e-24
2.882000e+02 1.156100e-24 1.156100e-24
2.883000e+02 1.147150e-24 1.147150e-24
2.884000e+02 1.138200e-24 1.138200e-24
2.885000e+02 1.129250e-24 1.129250e-24
2.886000e+02 1.120300e-24 1.120300e-24
2.887000e+02 1.111350e-24 1.111350e-24
2.888000e+02 1.102400e-24 1.102400e-24
2.889000e+02 1.093450e-24 1.093450e-24
2.890000e+02 1.084500e-24 1.084500e-24
2.891000e+02 1.075550e-24 1.075550e-24
2.892000e+02 1.066600e-24 1.066600e-24
2.893000e+02 1.057650e-24 1.057650e-24
2.894000e+02 1.048700e-24 1.048700e-24
2.895000e+02 1.039750e-24 1.039750e-24
2.896000e+02 1.030800e-24 1.030800e-24
2.897000e+02 1.021850e-24 1.021850e-24
2.898000e+02 1.012900e-24 1.012900e-24
2.899000e+02 1.003950e-24 1.003950e-24
2.900000e+02 9.950000e-25 9.950000e-25
2.901000e+02 9.860500e-25 9.860500e-25
2.902000e+02 9.771000e-25 9.771000e-25
2.903000e+02 9.681500e-25 9.681500e-25
2.904000e+02 9.592000e-25 9.592000e-25
2.905000e+02 9.502500e-25 9.502500e-25
2.906000e+02 9.413000e-25 9.413000e-25
2.907000e+02 9.323500e-25 9.323500e-25
2.908000e+02 9.234000e-25 9.234000e-25
2.909000e+02 9.144500e-25 9.144500e-25
2.910000e+02 9.055000e-25 9.055000e-25
2.911000e+02 8.965500e-25 8.965500e-25
2.912000e+02 8.876000e-25 8.876000e-25
2.913000e+02 8.786500e-25 8.786500e-25
2.914000e+02 8.697000e-25 8.697000e-25
2.915000e+02 8.607500e-25 8.607500e-25
2.916000e+02 8.518000e-25 8.518000e-25
2.917000e+02 8.428500e-25 8.428500e-25
2.918000e+02 8.339000e-25 8.339000e-25
2.919000e+02 8.249500e-25 8.249500e-25
2.920000e+02 8.160000e-25 8.160000e-25
2.921000e+02 8.070500e-25 8.070500e-25
2.922000e+02 7.981000e-25 7.981000e-25
2.923000e+02 7.891500e-25 7.891500e-25
2.924000e+02 7.802000e-25 7.802000e-25
2.925000e+02 7.712500e-25 7.712500e-25
2.926000e+02 7.623000e-25 7.623000e-25
2.927000e+02 7.533500e-25 7.533500e-25
2.928000e+02 7.444000e-25 7.444000e-25
2.929000e+02 7.354500e-25 7.354500e-25
2.930000e+02 7.265000e-25 7.265000e-25
2.931000e+02 7.175500e-25 7.175500e-25
2.932000e+02 7.086000e-25 7.086000e-25
2.933000e+02 6.996500e-25 6.996500e-25
2.934000e+02 6.907000e-25 6.907000e-25
2.935000e+02 6.817500e-25 6.817500e-25
2.936000e+02 6.728000e-25 6.728000e-25
2.937000e+02 6.638500e-25 6.638500e-25
2.938000e+02 6.549000e-25 6.549000e-25
2.939000e+02 6.459500e-25 6.459500e-25
2.940000e+02 6.370000e-25 6.370000e-25
2.941000e+02 6.280500e-25 6.280500e-25
2.942000e+02 6.191000e-25 6.191000e-25
2.943000e+02 6.101500e-25 6.101500e-25
2.944000e+02 6.012000e-25 6.012000e-25
2.945000e+02 5.922500e-25 5.922500e-25
2.946000e+02 5.833000e-25 5.833000e-25
2.947000e+02 5.743500e-25 5.743500e-25
2.948000e+02 5.654000e-25 5.654000e-25
2.949000e+02 5.564500e-25 5.564500e-25
2.950000e+02 5.475000e-25 5.475000e-25
2.951000e+02 5.385500e-25 5.385500e-25
2.952000e+02 5.296000e-25 5.296000e-25
2.953000e+02 5.206500e-25 5.206500e-25
2.954000e+02 5.117000e-25 5.117000e-25
2.955000e+02 5.027500e-25 5.027500e-25
2.956000e+02 4.938000e-25 4.938000e-25
2.957000e+02 4.848500e-25 4.848500e-25
2.958000e+02 4.759000e-25 4.759000e-25
2.959000e+02 4.669500e-25 4.669500e-25
2.960000e+02 4.580000e-25 4.580000e-25
2.961000e+02 4.490500e-25 4.490500e-25
2.962000e+02 4.401000e-25 4.401000e-25
2.963000e+02 4.311500e-25 4.311500e-25
2.964000e+02 4.222000e-25 4.222000e-25
2.965000e+02 4.132500e-25 4.132500e-25
2.966000e+02 4.043000e-25 4.043000e-25
2.967000e+02 3.953500e-25 3.953500e-25
2.968000e+02 3.864000e-25 3.864000e-25
2.969000e+02 3.774500e-25 3.774500e-25
2.970000e+02 3.685000e-25 3.685000e-25
2.971000e+02 3.595500e-25 3.595500e-25
2.972000e+02 3.506000e-25 3.506000e-25
2.973000e+02 3.416500e-25 3.416500e-25
2.974000e+02 3.327000e-25 3.327000e-25
2.975000e+02 3.237500e-25 3.237500e-25
2.976000e+02 3.148000e-25 3.148000e-25
2.977000e+02 3.058500e-25 3.058500e-25
2.978000e+02 2.969000e-25 2.969000e-25
2.979000e+02 2.879500e-25 2.879500e-25
2.980000e+02 2.790000e-25 2.790000e-25
2.981000e+02 2.700500e-25 2.700500e-25
2.982000e+02 2.611000e-25 2.611000e-25
2.983000e+02 2.521500e-25 2.521500e-25
2.984000e+02 2.432000e-25 2.432000e-25
2.985000e+02 2.342500e-25 2.342500e-25
2.986000e+02 2.253000e-25 2.253000e-25
2.987000e+02 2.163500e-25 2.163500e-25
2.988000e+02 2.074000e-25 2.074000e-25
2.989000e+02 1.984500e-25 1.984500e-25
2.990000e+02 1.895000e-25 1.895000e-25
2.991000e+02 1.805500e-25 1.805500e-25
2.992000e+02 1.716000e-25 1.716000e-25
2.993000e+02 1.626500e-25 1.626500e-25
2.994000e+02 1.537000e-25 1.537000e-25
2.995000e+02 1.447500e-25 1.447500e-25
2.996000e+02 1.358000e-25 1.358000e-25
2.997000e+02 1.268500e-25 1.268500e-25
2.998000e+02 1.179000e-25 1.179000e-25
2.999000e+02 1.089500e-25 1.089500e-25
