# S photoionisation cross section - reduced to   156points
# From the Leiden database for photodissociation and photoionization of astrophysically relevant molecules, http://home.strw.leidenuniv.nl/~ewine/photo/                                                                                                                                                                                                                                                                                                                                                            
# File last modified by Alan Heays 2017-03-01                                                                                                                                                                                                                                                                                                                                                                                                                                                                       
# references: barthel2015 10.1103/PhysRevA.91.013406, gibson1986 http://stacks.iop.org/0022-3700/19/i=18/a=013,                                                                                                                                                                                                                                                                                                                                                                                                     
# no info on lines                                                                                                                                                                                                                                                                                                                                                                                                                                                                                                  
# wavelength: Wavelength (nm)                                                                                                                                                                                                                                                                                                                                                                                                                                                                                       
# photoabsorption: Photoabsorption cross section (cm2)                                                                                                                                                                                                                                                                                                                                                                                                                                                              
# photoionisation: Photoionisation cross section (cm2)                                                                                                                                                                                                                                                                                                                                                                                                                                                              
# This version has been resampled to a uniform 0.1nm grid while maintaining a constant integrated cross section (using trapezoidal integration).                                                                                                                                                                                                                                                                                                                                                                    
# wavelength photoabsorption photoionisation                                                                                                                                                                                                                                                                                                                                                                                                                                                                        
4.177730E+01 5.529796E-18 5.529796E-18
4.227730E+01 5.674037E-18 5.674037E-18
4.277730E+01 4.836492E-18 4.836492E-18
4.327730E+01 4.242420E-18 4.242420E-18
4.377730E+01 5.675950E-18 5.675950E-18
4.427730E+01 8.034056E-18 8.034056E-18
4.477730E+01 6.019174E-18 6.019174E-18
4.527730E+01 3.747381E-18 3.747381E-18
4.577730E+01 3.700043E-18 3.700043E-18
4.627730E+01 8.218079E-18 8.218079E-18
4.677730E+01 3.629764E-18 3.629764E-18
4.727730E+01 5.793718E-18 5.793718E-18
4.777730E+01 7.115206E-18 7.115206E-18
4.827730E+01 1.069129E-17 1.069129E-17
4.877730E+01 5.344625E-18 5.344625E-18
4.927730E+01 3.568660E-18 3.568660E-18
4.977730E+01 4.413975E-18 4.413975E-18
5.027730E+01 5.296166E-18 5.296166E-18
5.077730E+01 5.959498E-18 5.959498E-18
5.127730E+01 6.431570E-18 6.431570E-18
5.177730E+01 7.033580E-18 7.033580E-18
5.227730E+01 7.644967E-18 7.644967E-18
5.277730E+01 8.207585E-18 8.207585E-18
5.327730E+01 8.623352E-18 8.623352E-18
5.377730E+01 9.213138E-18 9.213138E-18
5.427730E+01 9.784847E-18 9.784847E-18
5.477730E+01 1.015053E-17 1.015053E-17
5.527730E+01 1.073451E-17 1.073451E-17
5.577730E+01 1.126426E-17 1.126426E-17
5.627730E+01 1.160918E-17 1.160918E-17
5.677730E+01 1.215159E-17 1.215159E-17
5.727730E+01 1.283087E-17 1.283087E-17
5.777730E+01 1.322756E-17 1.322756E-17
5.827730E+01 1.370232E-17 1.370232E-17
5.877730E+01 1.396178E-17 1.396178E-17
5.927730E+01 1.470511E-17 1.470511E-17
5.977730E+01 1.512467E-17 1.512467E-17
6.027730E+01 1.563913E-17 1.563913E-17
6.077730E+01 1.592673E-17 1.592673E-17
6.127730E+01 1.643167E-17 1.643167E-17
6.177730E+01 1.672611E-17 1.672611E-17
6.227730E+01 1.696459E-17 1.696459E-17
6.277730E+01 1.689736E-17 1.689736E-17
6.327730E+01 1.829264E-17 1.829264E-17
6.377730E+01 1.949029E-17 1.949029E-17
6.427730E+01 2.039526E-17 2.039526E-17
6.477730E+01 1.872730E-17 1.872730E-17
6.527730E+01 1.958570E-17 1.958570E-17
6.577730E+01 2.160132E-17 2.160132E-17
6.627730E+01 2.217134E-17 2.217134E-17
6.677730E+01 2.268775E-17 2.268775E-17
6.727730E+01 2.324062E-17 2.324062E-17
6.777730E+01 2.386076E-17 2.386076E-17
6.827730E+01 2.419363E-17 2.419363E-17
6.877730E+01 1.898536E-17 1.898536E-17
6.927730E+01 1.274071E-17 1.274071E-17
6.977730E+01 2.363598E-17 2.363598E-17
7.027730E+01 2.563691E-17 2.563691E-17
7.077730E+01 2.640976E-17 2.640976E-17
7.127730E+01 2.694056E-17 2.694056E-17
7.177730E+01 2.751258E-17 2.751258E-17
7.227730E+01 2.797336E-17 2.797336E-17
7.277730E+01 2.840660E-17 2.840660E-17
7.327730E+01 2.897164E-17 2.897164E-17
7.377730E+01 2.943537E-17 2.943537E-17
7.427730E+01 2.982560E-17 2.982560E-17
7.477730E+01 3.040909E-17 3.040909E-17
7.527730E+01 3.082152E-17 3.082152E-17
7.577730E+01 3.122220E-17 3.122220E-17
7.627730E+01 3.159558E-17 3.159558E-17
7.677730E+01 3.211417E-17 3.211417E-17
7.727730E+01 3.255268E-17 3.255268E-17
7.777730E+01 3.292287E-17 3.292287E-17
7.827730E+01 3.328950E-17 3.328950E-17
7.877730E+01 3.364184E-17 3.364184E-17
7.927730E+01 3.400894E-17 3.400894E-17
7.977730E+01 3.434242E-17 3.434242E-17
8.027730E+01 3.470764E-17 3.470764E-17
8.077730E+01 3.503605E-17 3.503605E-17
8.127730E+01 3.537979E-17 3.537979E-17
8.177730E+01 3.571420E-17 3.571420E-17
8.227730E+01 3.603519E-17 3.603519E-17
8.277730E+01 3.637061E-17 3.637061E-17
8.327730E+01 3.652326E-17 3.652326E-17
8.377730E+01 3.678250E-17 3.678250E-17
8.427730E+01 3.709334E-17 3.709334E-17
8.477730E+01 3.741624E-17 3.741624E-17
8.527730E+01 3.770751E-17 3.770751E-17
8.577730E+01 3.789865E-17 3.789865E-17
8.627730E+01 3.811825E-17 3.811825E-17
8.677730E+01 3.839201E-17 3.839201E-17
8.727730E+01 3.853087E-17 3.853087E-17
8.777730E+01 3.876918E-17 3.876918E-17
8.827730E+01 3.902659E-17 3.902659E-17
8.877730E+01 3.916101E-17 3.916101E-17
8.927730E+01 3.939550E-17 3.939550E-17
8.977730E+01 3.963090E-17 3.963090E-17
9.027730E+01 3.977537E-17 3.977537E-17
9.077730E+01 4.001370E-17 4.001370E-17
9.127730E+01 4.023512E-17 4.023512E-17
9.177730E+01 4.036068E-17 4.036068E-17
9.227730E+01 3.895999E-17 3.895999E-17
9.277730E+01 6.464955E-17 6.464955E-17
9.327730E+01 6.986146E-17 6.986146E-17
9.377730E+01 6.277948E-17 6.277948E-17
9.427730E+01 4.604866E-17 4.604866E-17
9.477730E+01 4.423641E-17 4.423641E-17
9.527730E+01 6.482965E-17 6.482965E-17
9.577730E+01 4.553053E-17 4.553053E-17
9.627730E+01 3.955160E-17 3.955160E-17
9.677730E+01 8.684724E-17 8.684724E-17
9.727730E+01 2.985592E-17 2.985592E-17
9.777730E+01 3.197490E-17 3.197490E-17
9.827730E+01 3.426224E-17 3.426224E-17
9.877730E+01 3.578674E-17 3.578674E-17
9.927730E+01 6.102751E-17 6.102751E-17
9.977730E+01 6.048053E-17 6.048053E-17
1.002773E+02 2.383486E-17 2.383486E-17
1.007773E+02 2.694602E-17 2.694602E-17
1.012773E+02 2.520186E-17 2.520186E-17
1.017773E+02 2.452157E-17 2.452157E-17
1.022773E+02 2.883296E-17 2.883296E-17
1.027773E+02 2.969068E-17 2.969068E-17
1.032773E+02 2.643488E-17 2.643488E-17
1.037773E+02 1.296375E-17 1.296375E-17
1.042773E+02 1.461644E-17 1.461644E-17
1.047773E+02 3.421363E-17 3.421363E-17
1.052773E+02 1.905873E-17 1.905873E-17
1.057773E+02 7.132844E-17 7.132844E-17
1.062773E+02 6.160553E-17 6.160553E-17
1.067773E+02 1.197033E-17 1.197033E-17
1.072773E+02 1.917596E-17 1.917596E-17
1.077773E+02 6.235367E-18 6.235367E-18
1.082773E+02 4.032692E-18 4.032692E-18
1.087773E+02 9.893572E-18 9.893572E-18
1.092773E+02 1.077897E-16 1.077897E-16
1.097773E+02 3.245361E-17 3.245361E-17
1.102773E+02 3.007113E-17 3.007113E-17
1.107773E+02 2.826994E-17 2.826994E-17
1.112773E+02 1.353754E-17 1.353754E-17
1.117773E+02 2.147014E-18 2.147014E-18
1.122773E+02 1.139469E-18 1.139469E-18
1.127773E+02 2.914758E-18 2.914758E-18
1.132773E+02 2.338891E-18 2.338891E-18
1.137773E+02 3.280318E-18 3.280318E-18
1.142773E+02 6.289188E-18 6.289188E-18
1.147773E+02 7.649527E-18 7.649527E-18
1.152773E+02 1.155259E-17 1.155259E-17
1.157773E+02 1.566154E-17 1.566154E-17
1.162773E+02 2.446310E-17 2.446310E-17
1.167773E+02 7.538299E-17 7.538299E-17
1.172773E+02 2.481589E-17 2.481589E-17
1.177773E+02 1.584482E-17 1.584482E-17
1.182773E+02 1.675425E-17 1.675425E-17
1.187773E+02 1.844133E-17 1.844133E-17
1.192773E+02 1.944722E-17 1.944722E-17
